# Oscilloscope file ./2K-res-20uA-U.bin
# Channel 2
Time / s;Voltage / V
0;-0.004
0.25;0.002
0.5;0.002
0.75;0.008
1;-0.004
1.25;0.002
1.5;-0.002
1.75;0.008
2;-0.004
2.25;0.004
2.5;0.004
2.75;0.008
3;-0.004
3.25;0
3.5;0
3.75;0.008
4;-0.004
4.25;0.002
4.5;0.002
4.75;0.008
5;-0.004
5.25;0.002
5.5;0.002
5.75;0.006
6;-0.004
6.25;0.002
6.5;0.002
6.75;0.008
7;-0.004
7.25;0.004
7.5;0
7.75;0.006
8;-0.004
8.25;0.004
8.5;0.004
8.75;0.008
9;-0.004
9.25;0.002
9.5;0
9.75;0.008
10;-0.004
10.25;0.004
10.5;0
10.75;0.008
11;-0.002
11.25;0
11.5;0.002
11.75;0.008
12;-0.002
12.25;0.006
12.5;0.004
12.75;0.008
13;-0.004
13.25;0.004
13.5;0.002
13.75;0.008
14;-0.002
14.25;0.004
14.5;0
14.75;0.008
15;-0.004
15.25;0.002
15.5;0.002
15.75;0.006
16;-0.004
16.25;0
16.5;0.002
16.75;0.008
17;-0.004
17.25;0.002
17.5;0
17.75;0.008
18;-0.002
18.25;0.002
18.5;0
18.75;0.008
19;-0.004
19.25;0.002
19.5;0
19.75;0.006
20;-0.004
20.25;0.002
20.5;0
20.75;0.008
21;-0.004
21.25;0.002
21.5;0
21.75;0.008
22;-0.004
22.25;0
22.5;0.002
22.75;0.008
23;-0.004
23.25;0.002
23.5;0.002
23.75;0.008
24;-0.004
24.25;0.002
24.5;0.004
24.75;0.006
25;-0.004
25.25;0.002
25.5;0.004
25.75;0.008
26;-0.004
26.25;0.002
26.5;0.004
26.75;0.008
27;-0.004
27.25;0.004
27.5;0.002
27.75;0.006
28;-0.004
28.25;0.002
28.5;0.002
28.75;0.008
29;-0.002
29.25;0.004
29.5;0.004
29.75;0.006
30;-0.004
30.25;0.002
30.5;0.004
30.75;0.008
31;-0.004
31.25;0.002
31.5;0.002
31.75;0.008
32;-0.004
32.25;0.002
32.5;0
32.75;0.01
33;-0.004
33.25;0.004
33.5;0.004
33.75;0.006
34;-0.004
34.25;0
34.5;0
34.75;0.008
35;-0.004
35.25;0.002
35.5;0.004
35.75;0.006
36;-0.004
36.25;0
36.5;0.002
36.75;0.008
37;-0.002
37.25;0.002
37.5;0.004
37.75;0.008
38;-0.004
38.25;0.004
38.5;0.004
38.75;0.008
39;-0.004
39.25;0.002
39.5;0
39.75;0.006
40;-0.004
40.25;0
40.5;0.002
40.75;0.008
41;-0.004
41.25;0.004
41.5;0.006
41.75;0.008
42;-0.002
42.25;0.004
42.5;0.002
42.75;0.008
43;-0.002
43.25;0.004
43.5;0.004
43.75;0.006
44;-0.002
44.25;0.002
44.5;0.004
44.75;0.008
45;-0.004
45.25;0.002
45.5;0.002
45.75;0.008
46;-0.004
46.25;0.004
46.5;0.002
46.75;0.008
47;-0.002
47.25;0
47.5;0.002
47.75;0.006
48;-0.004
48.25;0.002
48.5;0.004
48.75;0.008
49;-0.002
49.25;0
49.5;0.004
49.75;0.008
50;-0.004
50.25;0.004
50.5;0.002
50.75;0.008
51;-0.002
51.25;0
51.5;0
51.75;0.008
52;-0.004
52.25;0.002
52.5;0
52.75;0.008
53;-0.004
53.25;0.002
53.5;0.002
53.75;0.008
54;-0.004
54.25;0.002
54.5;0
54.75;0.008
55;-0.004
55.25;0.002
55.5;0
55.75;0.008
56;-0.004
56.25;0
56.5;0.004
56.75;0.006
57;-0.002
57.25;0
57.5;0.004
57.75;0.008
58;-0.004
58.25;0.004
58.5;0.004
58.75;0.008
59;-0.004
59.25;0.002
59.5;0.002
59.75;0.008
60;-0.002
60.25;0
60.5;0.004
60.75;0.008
61;-0.002
61.25;0.004
61.5;0.002
61.75;0.006
62;-0.002
62.25;0.004
62.5;0.002
62.75;0.006
63;-0.004
63.25;0.004
63.5;0
63.75;0.008
64;-0.004
64.25;0.004
64.5;0.004
64.75;0.008
65;-0.004
65.25;0.002
65.5;0
65.75;0.008
66;-0.002
66.25;0.004
66.5;0
66.75;0.008
67;-0.002
67.25;0.004
67.5;0.002
67.75;0.008
68;-0.002
68.25;0.004
68.5;0.004
68.75;0.006
69;-0.004
69.25;0
69.5;0.002
69.75;0.008
70;-0.002
70.25;0.004
70.5;0.004
70.75;0.008
71;-0.002
71.25;0
71.5;0
71.75;0.008
72;-0.002
72.25;0.002
72.5;0.002
72.75;0.008
73;-0.002
73.25;0.004
73.5;0.002
73.75;0.008
74;-0.004
74.25;0.002
74.5;0.004
74.75;0.008
75;-0.002
75.25;0
75.5;0.002
75.75;0.008
76;-0.004
76.25;0.002
76.5;0.004
76.75;0.006
77;-0.002
77.25;0.002
77.5;0.002
77.75;0.008
78;-0.004
78.25;0.002
78.5;0.002
78.75;0.006
79;-0.002
79.25;0.002
79.5;0.002
79.75;0.008
80;-0.002
80.25;0.004
80.5;0.002
80.75;0.008
81;-0.004
81.25;0.002
81.5;0.004
81.75;0.008
82;-0.004
82.25;0.002
82.5;0.002
82.75;0.008
83;-0.004
83.25;0.002
83.5;0.002
83.75;0.008
84;-0.004
84.25;0.002
84.5;0
84.75;0.008
85;-0.004
85.25;0.004
85.5;0.002
85.75;0.008
86;-0.002
86.25;0.002
86.5;0.004
86.75;0.008
87;-0.004
87.25;0.004
87.5;0.002
87.75;0.008
88;-0.002
88.25;0.002
88.5;0.002
88.75;0.008
89;-0.002
89.25;0.006
89.5;0.004
89.75;0.008
90;-0.002
90.25;0.002
90.5;0.004
90.75;0.008
91;-0.002
91.25;0.004
91.5;0.002
91.75;0.008
92;-0.002
92.25;0.006
92.5;0.002
92.75;0.008
93;-0.002
93.25;0.002
93.5;0.004
93.75;0.008
94;-0.002
94.25;0.002
94.5;0.002
94.75;0.008
95;-0.002
95.25;0.004
95.5;0.002
95.75;0.008
96;-0.002
96.25;0.006
96.5;0.002
96.75;0.008
97;-0.002
97.25;0.004
97.5;0.002
97.75;0.008
98;-0.002
98.25;0.002
98.5;0.002
98.75;0.008
99;-0.002
99.25;0.004
99.5;0.002
99.75;0.008
100;-0.002
100.25;0.002
100.5;0
100.75;0.008
101;-0.002
101.25;0.004
101.5;0.004
101.75;0.008
102;-0.002
102.25;0.004
102.5;0.004
102.75;0.008
103;-0.002
103.25;0.004
103.5;0.002
103.75;0.008
104;-0.002
104.25;0.002
104.5;0.004
104.75;0.01
105;-0.002
105.25;0.004
105.5;0.004
105.75;0.008
106;-0.002
106.25;0.002
106.5;0.002
106.75;0.008
107;0
107.25;0.006
107.5;0.004
107.75;0.01
108;0
108.25;0.004
108.5;0.002
108.75;0.01
109;0
109.25;0.006
109.5;0.004
109.75;0.01
110;0
110.25;0.006
110.5;0.004
110.75;0.01
111;-0.002
111.25;0.004
111.5;0.004
111.75;0.01
112;0
112.25;0.004
112.5;0.006
112.75;0.01
113;0
113.25;0.008
113.5;0.006
113.75;0.01
114;0
114.25;0.006
114.5;0.006
114.75;0.01
115;0.002
115.25;0.006
115.5;0.006
115.75;0.012
116;0
116.25;0.004
116.5;0.008
116.75;0.012
117;0.002
117.25;0.006
117.5;0.004
117.75;0.012
118;0.002
118.25;0.01
118.5;0.008
118.75;0.012
119;0.002
119.25;0.008
119.5;0.006
119.75;0.012
120;0.004
120.25;0.006
120.5;0.01
120.75;0.014
121;0.004
121.25;0.008
121.5;0.008
121.75;0.016
122;0.004
122.25;0.01
122.5;0.01
122.75;0.014
123;0.004
123.25;0.012
123.5;0.012
123.75;0.016
124;0.006
124.25;0.008
124.5;0.01
124.75;0.014
125;0.006
125.25;0.01
125.5;0.01
125.75;0.016
126;0.008
126.25;0.014
126.5;0.012
126.75;0.016
127;0.006
127.25;0.012
127.5;0.014
127.75;0.018
128;0.008
128.25;0.014
128.5;0.014
128.75;0.02
129;0.008
129.25;0.014
129.5;0.014
129.75;0.018
130;0.01
130.25;0.016
130.5;0.016
130.75;0.02
131;0.01
131.25;0.016
131.5;0.016
131.75;0.02
132;0.012
132.25;0.016
132.5;0.016
132.75;0.022
133;0.012
133.25;0.016
133.5;0.018
133.75;0.022
134;0.014
134.25;0.018
134.5;0.018
134.75;0.024
135;0.014
135.25;0.022
135.5;0.02
135.75;0.024
136;0.016
136.25;0.02
136.5;0.02
136.75;0.026
137;0.018
137.25;0.02
137.5;0.024
137.75;0.028
138;0.018
138.25;0.024
138.5;0.022
138.75;0.028
139;0.018
139.25;0.024
139.5;0.024
139.75;0.03
140;0.02
140.25;0.028
140.5;0.026
140.75;0.03
141;0.02
141.25;0.026
141.5;0.026
141.75;0.032
142;0.022
142.25;0.026
142.5;0.026
142.75;0.032
143;0.022
143.25;0.028
143.5;0.03
143.75;0.034
144;0.024
144.25;0.03
144.5;0.03
144.75;0.036
145;0.026
145.25;0.03
145.5;0.032
145.75;0.036
146;0.028
146.25;0.032
146.5;0.032
146.75;0.038
147;0.028
147.25;0.034
147.5;0.034
147.75;0.038
148;0.03
148.25;0.034
148.5;0.036
148.75;0.04
149;0.03
149.25;0.038
149.5;0.036
149.75;0.04
150;0.032
150.25;0.038
150.5;0.038
150.75;0.042
151;0.034
151.25;0.04
151.5;0.04
151.75;0.044
152;0.034
152.25;0.038
152.5;0.04
152.75;0.044
153;0.034
153.25;0.042
153.5;0.042
153.75;0.046
154;0.038
154.25;0.042
154.5;0.042
154.75;0.048
155;0.038
155.25;0.042
155.5;0.042
155.75;0.05
156;0.04
156.25;0.044
156.5;0.044
156.75;0.05
157;0.04
157.25;0.05
157.5;0.044
157.75;0.05
158;0.042
158.25;0.046
158.5;0.046
158.75;0.05
159;0.042
159.25;0.048
159.5;0.048
159.75;0.052
160;0.044
160.25;0.046
160.5;0.048
160.75;0.052
161;0.044
161.25;0.048
161.5;0.05
161.75;0.052
162;0.046
162.25;0.048
162.5;0.048
162.75;0.054
163;0.046
163.25;0.048
163.5;0.048
163.75;0.054
164;0.046
164.25;0.05
164.5;0.05
164.75;0.054
165;0.046
165.25;0.052
165.5;0.052
165.75;0.056
166;0.046
166.25;0.052
166.5;0.052
166.75;0.056
167;0.048
167.25;0.052
167.5;0.052
167.75;0.056
168;0.048
168.25;0.052
168.5;0.052
168.75;0.056
169;0.048
169.25;0.052
169.5;0.052
169.75;0.058
170;0.048
170.25;0.052
170.5;0.054
170.75;0.058
171;0.048
171.25;0.054
171.5;0.054
171.75;0.058
172;0.05
172.25;0.054
172.5;0.054
172.75;0.058
173;0.05
173.25;0.052
173.5;0.054
173.75;0.058
174;0.05
174.25;0.056
174.5;0.056
174.75;0.06
175;0.05
175.25;0.054
175.5;0.054
175.75;0.06
176;0.05
176.25;0.054
176.5;0.054
176.75;0.058
177;0.05
177.25;0.054
177.5;0.054
177.75;0.058
178;0.05
178.25;0.054
178.5;0.054
178.75;0.058
179;0.05
179.25;0.054
179.5;0.052
179.75;0.058
180;0.05
180.25;0.054
180.5;0.054
180.75;0.058
181;0.05
181.25;0.052
181.5;0.054
181.75;0.058
182;0.05
182.25;0.054
182.5;0.054
182.75;0.058
183;0.05
183.25;0.052
183.5;0.054
183.75;0.058
184;0.05
184.25;0.052
184.5;0.054
184.75;0.058
185;0.05
185.25;0.054
185.5;0.052
185.75;0.056
186;0.048
186.25;0.054
186.5;0.052
186.75;0.058
187;0.048
187.25;0.05
187.5;0.054
187.75;0.056
188;0.048
188.25;0.05
188.5;0.052
188.75;0.056
189;0.048
189.25;0.052
189.5;0.052
189.75;0.056
190;0.046
190.25;0.052
190.5;0.05
190.75;0.056
191;0.046
191.25;0.05
191.5;0.054
191.75;0.056
192;0.046
192.25;0.052
192.5;0.052
192.75;0.056
193;0.046
193.25;0.05
193.5;0.05
193.75;0.056
194;0.046
194.25;0.048
194.5;0.05
194.75;0.054
195;0.046
195.25;0.05
195.5;0.05
195.75;0.056
196;0.046
196.25;0.05
196.5;0.05
196.75;0.054
197;0.044
197.25;0.05
197.5;0.048
197.75;0.054
198;0.044
198.25;0.048
198.5;0.048
198.75;0.052
199;0.044
199.25;0.046
199.5;0.048
199.75;0.052
200;0.042
200.25;0.048
200.5;0.046
200.75;0.052
201;0.044
201.25;0.048
201.5;0.05
201.75;0.052
202;0.044
202.25;0.048
202.5;0.046
202.75;0.052
203;0.042
203.25;0.046
203.5;0.046
203.75;0.05
204;0.042
204.25;0.048
204.5;0.046
204.75;0.05
205;0.042
205.25;0.044
205.5;0.046
205.75;0.05
206;0.04
206.25;0.044
206.5;0.046
206.75;0.05
207;0.04
207.25;0.044
207.5;0.044
207.75;0.048
208;0.04
208.25;0.046
208.5;0.044
208.75;0.048
209;0.04
209.25;0.044
209.5;0.044
209.75;0.048
210;0.04
210.25;0.044
210.5;0.044
210.75;0.048
211;0.04
211.25;0.044
211.5;0.044
211.75;0.048
212;0.038
212.25;0.044
212.5;0.044
212.75;0.048
213;0.038
213.25;0.042
213.5;0.042
213.75;0.048
214;0.038
214.25;0.042
214.5;0.044
214.75;0.046
215;0.036
215.25;0.04
215.5;0.04
215.75;0.046
216;0.036
216.25;0.042
216.5;0.042
216.75;0.046
217;0.036
217.25;0.04
217.5;0.042
217.75;0.046
218;0.038
218.25;0.04
218.5;0.042
218.75;0.044
219;0.036
219.25;0.042
219.5;0.04
219.75;0.046
220;0.036
220.25;0.042
220.5;0.04
220.75;0.044
221;0.036
221.25;0.042
221.5;0.038
221.75;0.044
222;0.036
222.25;0.038
222.5;0.038
222.75;0.044
223;0.034
223.25;0.038
223.5;0.04
223.75;0.044
224;0.034
224.25;0.04
224.5;0.038
224.75;0.044
225;0.034
225.25;0.04
225.5;0.038
225.75;0.042
226;0.034
226.25;0.038
226.5;0.038
226.75;0.042
227;0.034
227.25;0.036
227.5;0.04
227.75;0.042
228;0.032
228.25;0.038
228.5;0.038
228.75;0.042
229;0.032
229.25;0.036
229.5;0.036
229.75;0.04
230;0.032
230.25;0.038
230.5;0.036
230.75;0.04
231;0.032
231.25;0.036
231.5;0.036
231.75;0.04
232;0.032
232.25;0.036
232.5;0.036
232.75;0.04
233;0.03
233.25;0.034
233.5;0.036
233.75;0.04
234;0.03
234.25;0.034
234.5;0.036
234.75;0.04
235;0.03
235.25;0.032
235.5;0.034
235.75;0.038
236;0.028
236.25;0.034
236.5;0.032
236.75;0.038
237;0.028
237.25;0.034
237.5;0.034
237.75;0.036
238;0.028
238.25;0.034
238.5;0.032
238.75;0.038
239;0.028
239.25;0.032
239.5;0.032
239.75;0.038
240;0.026
240.25;0.03
240.5;0.03
240.75;0.036
241;0.026
241.25;0.03
241.5;0.03
241.75;0.036
242;0.026
242.25;0.03
242.5;0.028
242.75;0.034
243;0.024
243.25;0.03
243.5;0.028
243.75;0.034
244;0.024
244.25;0.03
244.5;0.028
244.75;0.032
245;0.024
245.25;0.028
245.5;0.028
245.75;0.032
246;0.024
246.25;0.028
246.5;0.026
246.75;0.032
247;0.022
247.25;0.028
247.5;0.026
247.75;0.03
248;0.022
248.25;0.026
248.5;0.028
248.75;0.03
249;0.02
249.25;0.026
249.5;0.024
249.75;0.028
250;0.02
250.25;0.022
250.5;0.024
250.75;0.028
251;0.018
251.25;0.024
251.5;0.024
251.75;0.028
252;0.018
252.25;0.02
252.5;0.024
252.75;0.028
253;0.018
253.25;0.022
253.5;0.022
253.75;0.026
254;0.018
254.25;0.022
254.5;0.02
254.75;0.026
255;0.016
255.25;0.022
255.5;0.02
255.75;0.026
256;0.014
256.25;0.022
256.5;0.02
256.75;0.024
257;0.014
257.25;0.018
257.5;0.02
257.75;0.024
258;0.014
258.25;0.018
258.5;0.018
258.75;0.022
259;0.012
259.25;0.016
259.5;0.016
259.75;0.022
260;0.012
260.25;0.014
260.5;0.018
260.75;0.02
261;0.01
261.25;0.014
261.5;0.012
261.75;0.02
262;0.01
262.25;0.014
262.5;0.014
262.75;0.02
263;0.008
263.25;0.012
263.5;0.014
263.75;0.018
264;0.008
264.25;0.012
264.5;0.014
264.75;0.016
265;0.006
265.25;0.012
265.5;0.014
265.75;0.016
266;0.006
266.25;0.012
266.5;0.01
266.75;0.016
267;0.006
267.25;0.008
267.5;0.008
267.75;0.016
268;0.006
268.25;0.012
268.5;0.01
268.75;0.014
269;0.004
269.25;0.012
269.5;0.008
269.75;0.014
270;0.004
270.25;0.008
270.5;0.008
270.75;0.014
271;0.004
271.25;0.008
271.5;0.01
271.75;0.014
272;0.002
272.25;0.004
272.5;0.006
272.75;0.014
273;0.002
273.25;0.008
273.5;0.008
273.75;0.012
274;0.002
274.25;0.008
274.5;0.008
274.75;0.012
275;0
275.25;0.006
275.5;0.006
275.75;0.012
276;0.002
276.25;0.006
276.5;0.008
276.75;0.012
277;0
277.25;0.006
277.5;0.006
277.75;0.012
278;-0.002
278.25;0.006
278.5;0.004
278.75;0.012
279;-0.002
279.25;0.004
279.5;0.004
279.75;0.01
280;-0.002
280.25;0.006
280.5;0.004
280.75;0.01
281;0
281.25;0.004
281.5;0.002
281.75;0.01
282;0
282.25;0.004
282.5;0.002
282.75;0.01
283;0
283.25;0.004
283.5;0.002
283.75;0.01
284;-0.002
284.25;0.002
284.5;0.004
284.75;0.01
285;0
285.25;0.002
285.5;0.004
285.75;0.01
286;-0.002
286.25;0.004
286.5;0.004
286.75;0.01
287;-0.002
287.25;0.004
287.5;0.004
287.75;0.01
288;-0.002
288.25;0.006
288.5;0.002
288.75;0.01
289;-0.002
289.25;0.004
289.5;0.002
289.75;0.01
290;-0.002
290.25;0.002
290.5;0.002
290.75;0.01
291;-0.002
291.25;0.004
291.5;0.002
291.75;0.01
292;-0.002
292.25;0.004
292.5;0.006
292.75;0.01
293;-0.002
293.25;0.004
293.5;0.004
293.75;0.01
294;-0.002
294.25;0.002
294.5;0.004
294.75;0.01
295;-0.002
295.25;0.006
295.5;0.006
295.75;0.01
296;-0.002
296.25;0.004
296.5;0.004
296.75;0.01
297;-0.002
297.25;0.004
297.5;0.002
297.75;0.01
298;-0.002
298.25;0.004
298.5;0.006
298.75;0.01
299;-0.004
299.25;0.004
299.5;0.002
299.75;0.01
300;-0.002
300.25;0.002
300.5;0.002
300.75;0.01
301;-0.004
301.25;0.002
301.5;0.002
301.75;0.01
302;-0.002
302.25;0.004
302.5;0.004
302.75;0.01
303;-0.002
303.25;0.002
303.5;0.002
303.75;0.01
304;-0.002
304.25;0.004
304.5;0.004
304.75;0.01
305;-0.002
305.25;0.004
305.5;0.006
305.75;0.01
306;-0.002
306.25;0.004
306.5;0.004
306.75;0.01
307;-0.002
307.25;0.004
307.5;0.002
307.75;0.01
308;-0.002
308.25;0.006
308.5;0.004
308.75;0.01
309;-0.002
309.25;0.004
309.5;0.006
309.75;0.01
310;0
310.25;0.006
310.5;0.002
310.75;0.01
311;-0.002
311.25;0.006
311.5;0.006
311.75;0.01
312;-0.002
312.25;0.004
312.5;0.004
312.75;0.01
313;0
313.25;0.004
313.5;0.004
313.75;0.01
314;0
314.25;0.004
314.5;0.004
314.75;0.022
315;-0.064
315.25;0.002
315.5;0.004
315.75;0.01
316;-0.002
316.25;0.004
316.5;0.006
316.75;0.012
317;0
317.25;0.004
317.5;0.008
317.75;0.012
318;0
318.25;0.004
318.5;0.004
318.75;0.01
319;0
319.25;0.002
319.5;0.008
319.75;0.012
320;0
320.25;0.006
320.5;0.006
320.75;0.012
321;0.002
321.25;0.004
321.5;0.004
321.75;0.012
322;0
322.25;0.006
322.5;0.004
322.75;0.012
323;0.002
323.25;0.006
323.5;0.008
323.75;0.012
324;0
324.25;0.006
324.5;0.01
324.75;0.014
325;0.002
325.25;0.008
325.5;0.008
325.75;0.014
326;0.002
326.25;0.008
326.5;0.008
326.75;0.014
327;0.004
327.25;0.006
327.5;0.008
327.75;0.014
328;0.004
328.25;0.01
328.5;0.008
328.75;0.014
329;0.004
329.25;0.01
329.5;0.01
329.75;0.016
330;0.006
330.25;0.012
330.5;0.012
330.75;0.016
331;0.006
331.25;0.01
331.5;0.01
331.75;0.018
332;0.004
332.25;0.014
332.5;0.012
332.75;0.018
333;0.006
333.25;0.012
333.5;0.012
333.75;0.018
334;0.008
334.25;0.012
334.5;0.016
334.75;0.02
335;0.008
335.25;0.014
335.5;0.014
335.75;0.02
336;0.01
336.25;0.016
336.5;0.016
336.75;0.022
337;0.01
337.25;0.018
337.5;0.014
337.75;0.022
338;0.01
338.25;0.018
338.5;0.018
338.75;0.024
339;0.012
339.25;0.016
339.5;0.018
339.75;0.022
340;0.014
340.25;0.018
340.5;0.018
340.75;0.024
341;0.014
341.25;0.02
341.5;0.02
341.75;0.024
342;0.014
342.25;0.02
342.5;0.02
342.75;0.026
343;0.016
343.25;0.024
343.5;0.022
343.75;0.026
344;0.016
344.25;0.022
344.5;0.022
344.75;0.026
345;0.018
345.25;0.022
345.5;0.022
345.75;0.028
346;0.018
346.25;0.022
346.5;0.022
346.75;0.028
347;0.016
347.25;0.024
347.5;0.024
347.75;0.028
348;0.018
348.25;0.026
348.5;0.024
348.75;0.028
349;0.018
349.25;0.022
349.5;0.024
349.75;0.028
350;0.02
350.25;0.024
350.5;0.024
350.75;0.03
351;0.018
351.25;0.026
351.5;0.024
351.75;0.03
352;0.02
352.25;0.024
352.5;0.028
352.75;0.03
353;0.02
353.25;0.024
353.5;0.024
353.75;0.03
354;0.018
354.25;0.024
354.5;0.024
354.75;0.03
355;0.02
355.25;0.024
355.5;0.024
355.75;0.03
356;0.02
356.25;0.028
356.5;0.026
356.75;0.028
357;0.02
357.25;0.024
357.5;0.024
357.75;0.03
358;0.02
358.25;0.026
358.5;0.022
358.75;0.028
359;0.02
359.25;0.026
359.5;0.024
359.75;0.028
360;0.018
360.25;0.024
360.5;0.022
360.75;0.028
361;0.02
361.25;0.024
361.5;0.024
361.75;0.028
362;0.018
362.25;0.024
362.5;0.022
362.75;0.028
363;0.018
363.25;0.022
363.5;0.024
363.75;0.028
364;0.018
364.25;0.022
364.5;0.022
364.75;0.026
365;0.016
365.25;0.022
365.5;0.022
365.75;0.026
366;0.016
366.25;0.022
366.5;0.022
366.75;0.026
367;0.014
367.25;0.02
367.5;0.02
367.75;0.024
368;0.014
368.25;0.02
368.5;0.02
368.75;0.026
369;0.016
369.25;0.018
369.5;0.022
369.75;0.024
370;0.014
370.25;0.018
370.5;0.02
370.75;0.024
371;0.014
371.25;0.016
371.5;0.016
371.75;0.024
372;0.012
372.25;0.016
372.5;0.016
372.75;0.022
373;0.012
373.25;0.016
373.5;0.014
373.75;0.02
374;0.01
374.25;0.014
374.5;0.016
374.75;0.022
375;0.01
375.25;0.016
375.5;0.016
375.75;0.02
376;0.01
376.25;0.016
376.5;0.014
376.75;0.02
377;0.008
377.25;0.012
377.5;0.014
377.75;0.018
378;0.008
378.25;0.012
378.5;0.014
378.75;0.022
379;0.008
379.25;0.014
379.5;0.012
379.75;0.018
380;0.008
380.25;0.012
380.5;0.01
380.75;0.018
381;0.006
381.25;0.01
381.5;0.01
381.75;0.016
382;0.006
382.25;0.012
382.5;0.01
382.75;0.018
383;0.006
383.25;0.01
383.5;0.01
383.75;0.016
384;0.006
384.25;0.01
384.5;0.012
384.75;0.016
385;0.004
385.25;0.012
385.5;0.01
385.75;0.016
386;0.006
386.25;0.01
386.5;0.01
386.75;0.016
387;0.004
387.25;0.008
387.5;0.01
387.75;0.014
388;0.004
388.25;0.012
388.5;0.01
388.75;0.014
389;0.004
389.25;0.01
389.5;0.012
389.75;0.016
390;0.004
390.25;0.008
390.5;0.008
390.75;0.014
391;0.004
391.25;0.01
391.5;0.008
391.75;0.014
392;0.004
392.25;0.006
392.5;0.006
392.75;0.014
393;0.004
393.25;0.01
393.5;0.01
393.75;0.016
394;0.004
394.25;0.008
394.5;0.01
394.75;0.016
395;0.004
395.25;0.008
395.5;0.008
395.75;0.016
396;0.004
396.25;0.008
396.5;0.008
396.75;0.016
397;0.004
397.25;0.01
397.5;0.01
397.75;0.016
398;0.004
398.25;0.008
398.5;0.01
398.75;0.016
399;0.004
399.25;0.01
399.5;0.01
399.75;0.016
400;0.004
400.25;0.012
400.5;0.01
400.75;0.016
401;0.006
401.25;0.01
401.5;0.012
401.75;0.016
402;0.006
402.25;0.01
402.5;0.014
402.75;0.018
403;0.006
403.25;0.014
403.5;0.012
403.75;0.018
404;0.008
404.25;0.014
404.5;0.012
404.75;0.018
405;0.008
405.25;0.014
405.5;0.014
405.75;0.02
406;0.008
406.25;0.014
406.5;0.012
406.75;0.02
407;0.01
407.25;0.014
407.5;0.014
407.75;0.02
408;0.01
408.25;0.018
408.5;0.018
408.75;0.02
409;0.01
409.25;0.018
409.5;0.016
409.75;0.022
410;0.01
410.25;0.014
410.5;0.016
410.75;0.022
411;0.01
411.25;0.016
411.5;0.014
411.75;0.022
412;0.012
412.25;0.018
412.5;0.018
412.75;0.026
413;0.01
413.25;0.016
413.5;0.018
413.75;0.024
414;0.012
414.25;0.02
414.5;0.02
414.75;0.024
415;0.014
415.25;0.018
415.5;0.018
415.75;0.024
416;0.014
416.25;0.02
416.5;0.018
416.75;0.024
417;0.014
417.25;0.018
417.5;0.016
417.75;0.024
418;0.014
418.25;0.02
418.5;0.018
418.75;0.024
419;0.014
419.25;0.02
419.5;0.018
419.75;0.024
420;0.012
420.25;0.016
420.5;0.018
420.75;0.024
421;0.014
421.25;0.018
421.5;0.02
421.75;0.024
422;0.014
422.25;0.018
422.5;0.018
422.75;0.024
423;0.012
423.25;0.016
423.5;0.018
423.75;0.022
424;0.014
424.25;0.016
424.5;0.016
424.75;0.022
425;0.012
425.25;0.018
425.5;0.016
425.75;0.022
426;0.012
426.25;0.018
426.5;0.018
426.75;0.022
427;0.012
427.25;0.02
427.5;0.018
427.75;0.022
428;0.012
428.25;0.016
428.5;0.018
428.75;0.022
429;0.012
429.25;0.016
429.5;0.018
429.75;0.022
430;0.012
430.25;0.018
430.5;0.016
430.75;0.02
431;0.01
431.25;0.016
431.5;0.014
431.75;0.02
432;0.01
432.25;0.016
432.5;0.016
432.75;0.02
433;0.01
433.25;0.014
433.5;0.014
433.75;0.02
434;0.01
434.25;0.014
434.5;0.016
434.75;0.02
435;0.01
435.25;0.012
435.5;0.014
435.75;0.02
436;0.01
436.25;0.016
436.5;0.014
436.75;0.02
437;0.008
437.25;0.018
437.5;0.016
437.75;0.02
438;0.008
438.25;0.014
438.5;0.016
438.75;0.02
439;0.01
439.25;0.018
439.5;0.016
439.75;0.02
440;0.01
440.25;0.014
440.5;0.016
440.75;0.02
441;0.01
441.25;0.016
441.5;0.016
441.75;0.02
442;0.01
442.25;0.012
442.5;0.014
442.75;0.02
443;0.012
443.25;0.018
443.5;0.018
443.75;0.022
444;0.01
444.25;0.016
444.5;0.016
444.75;0.02
445;0.012
445.25;0.016
445.5;0.016
445.75;0.022
446;0.012
446.25;0.016
446.5;0.018
446.75;0.022
447;0.01
447.25;0.016
447.5;0.016
447.75;0.022
448;0.012
448.25;0.018
448.5;0.018
448.75;0.022
449;0.012
449.25;0.016
449.5;0.018
449.75;0.022
450;0.012
450.25;0.018
450.5;0.016
450.75;0.024
451;0.012
451.25;0.018
451.5;0.018
451.75;0.022
452;0.014
452.25;0.02
452.5;0.018
452.75;0.022
453;0.014
453.25;0.018
453.5;0.02
453.75;0.022
454;0.014
454.25;0.018
454.5;0.016
454.75;0.024
455;0.012
455.25;0.018
455.5;0.016
455.75;0.022
456;0.014
456.25;0.02
456.5;0.018
456.75;0.024
457;0.012
457.25;0.02
457.5;0.018
457.75;0.022
458;0.012
458.25;0.018
458.5;0.018
458.75;0.022
459;0.012
459.25;0.016
459.5;0.018
459.75;0.022
460;0.012
460.25;0.018
460.5;0.018
460.75;0.024
461;0.012
461.25;0.018
461.5;0.018
461.75;0.022
462;0.012
462.25;0.016
462.5;0.016
462.75;0.022
463;0.012
463.25;0.018
463.5;0.016
463.75;0.022
464;0.012
464.25;0.018
464.5;0.018
464.75;0.022
465;0.012
465.25;0.02
465.5;0.016
465.75;0.022
466;0.012
466.25;0.016
466.5;0.016
466.75;0.022
467;0.012
467.25;0.016
467.5;0.016
467.75;0.022
468;0.014
468.25;0.018
468.5;0.018
468.75;0.022
469;0.012
469.25;0.016
469.5;0.018
469.75;0.022
470;0.014
470.25;0.02
470.5;0.016
470.75;0.024
471;0.014
471.25;0.02
471.5;0.016
471.75;0.022
472;0.012
472.25;0.018
472.5;0.02
472.75;0.022
473;0.014
473.25;0.02
473.5;0.018
473.75;0.024
474;0.014
474.25;0.016
474.5;0.016
474.75;0.024
475;0.014
475.25;0.016
475.5;0.018
475.75;0.024
476;0.014
476.25;0.018
476.5;0.02
476.75;0.026
477;0.014
477.25;0.018
477.5;0.02
477.75;0.024
478;0.014
478.25;0.018
478.5;0.018
478.75;0.022
479;0.014
479.25;0.018
479.5;0.018
479.75;0.022
480;0.014
480.25;0.018
480.5;0.016
480.75;0.022
481;0.014
481.25;0.018
481.5;0.018
481.75;0.024
482;0.014
482.25;0.018
482.5;0.016
482.75;0.024
483;0.014
483.25;0.018
483.5;0.02
483.75;0.022
484;0.014
484.25;0.018
484.5;0.018
484.75;0.024
485;-0.006
485.25;0.02
485.5;0.018
485.75;0.022
486;0.014
486.25;0.018
486.5;0.018
486.75;0.022
487;0.014
487.25;0.018
487.5;0.016
487.75;0.024
488;0.014
488.25;0.018
488.5;0.018
488.75;0.022
489;0.014
489.25;0.018
489.5;0.016
489.75;0.024
490;0.014
490.25;0.02
490.5;0.02
490.75;0.024
491;0.014
491.25;0.018
491.5;0.018
491.75;0.024
492;0.014
492.25;0.018
492.5;0.018
492.75;0.03
493;0.01
493.25;0.02
493.5;0.018
493.75;0.022
494;0.014
494.25;0.018
494.5;0.018
494.75;0.024
495;0.014
495.25;0.02
495.5;0.016
495.75;0.024
496;0.014
496.25;0.018
496.5;0.018
496.75;0.024
497;0.014
497.25;0.02
497.5;0.018
497.75;0.024
498;0.014
498.25;0.018
498.5;0.02
498.75;0.024
499;0.014
499.25;0.018
499.5;0.02
499.75;0.024
500;0.014
500.25;0.02
500.5;0.018
500.75;0.024
501;0.016
501.25;0.02
501.5;0.018
501.75;0.024
502;0.014
502.25;0.02
502.5;0.02
502.75;0.024
503;0.014
503.25;0.018
503.5;0.018
503.75;0.024
504;0.016
504.25;0.022
504.5;0.02
504.75;0.024
505;0.014
505.25;0.02
505.5;0.018
505.75;0.024
506;0.014
506.25;0.018
506.5;0.02
506.75;0.024
507;0.016
507.25;0.022
507.5;0.02
507.75;0.024
508;0.014
508.25;0.02
508.5;0.02
508.75;0.024
509;0.014
509.25;0.022
509.5;0.018
509.75;0.024
510;0.014
510.25;0.02
510.5;0.018
510.75;0.024
511;0.016
511.25;0.018
511.5;0.02
511.75;0.024
512;0.016
512.25;0.02
512.5;0.02
512.75;0.022
513;0.016
513.25;0.02
513.5;0.02
513.75;0.024
514;0.016
514.25;0.02
514.5;0.02
514.75;0.024
515;0.016
515.25;0.02
515.5;0.018
515.75;0.024
516;0.016
516.25;0.02
516.5;0.018
516.75;0.024
517;0.016
517.25;0.018
517.5;0.018
517.75;0.024
518;0.016
518.25;0.02
518.5;0.018
518.75;0.024
519;0.014
519.25;0.02
519.5;0.018
519.75;0.022
520;0.016
520.25;0.02
520.5;0.02
520.75;0.024
521;0.016
521.25;0.02
521.5;0.02
521.75;0.024
522;0.016
522.25;0.02
522.5;0.02
522.75;0.024
523;0.016
523.25;0.018
523.5;0.018
523.75;0.024
524;0.016
524.25;0.02
524.5;0.02
524.75;0.024
525;0.016
525.25;0.02
525.5;0.018
525.75;0.024
526;0.016
526.25;0.02
526.5;0.018
526.75;0.024
527;0.016
527.25;0.018
527.5;0.02
527.75;0.024
528;0.016
528.25;0.02
528.5;0.02
528.75;0.024
529;0.016
529.25;0.02
529.5;0.02
529.75;0.024
530;0.016
530.25;0.02
530.5;0.018
530.75;0.024
531;0.016
531.25;0.02
531.5;0.02
531.75;0.024
532;0.016
532.25;0.018
532.5;0.018
532.75;0.024
533;0.016
533.25;0.02
533.5;0.02
533.75;0.024
534;0.016
534.25;0.02
534.5;0.02
534.75;0.024
535;0.016
535.25;0.02
535.5;0.02
535.75;0.024
536;0.016
536.25;0.02
536.5;0.02
536.75;0.026
537;0.014
537.25;0.018
537.5;0.02
537.75;0.024
538;0.016
538.25;0.02
538.5;0.02
538.75;0.024
539;0.016
539.25;0.02
539.5;0.02
539.75;0.024
540;0.016
540.25;0.018
540.5;0.02
540.75;0.024
541;0.016
541.25;0.018
541.5;0.02
541.75;0.024
542;0.016
542.25;0.018
542.5;0.02
542.75;0.024
543;0.016
543.25;0.02
543.5;0.02
543.75;0.024
544;0.016
544.25;0.018
544.5;0.018
544.75;0.024
545;0.016
545.25;0.02
545.5;0.022
545.75;0.024
546;0.016
546.25;0.02
546.5;0.02
546.75;0.024
547;0.016
547.25;0.022
547.5;0.02
547.75;0.024
548;0.016
548.25;0.022
548.5;0.02
548.75;0.024
549;0.014
549.25;0.02
549.5;0.018
549.75;0.024
550;0.016
550.25;0.02
550.5;0.02
550.75;0.024
551;0.016
551.25;0.02
551.5;0.018
551.75;0.024
552;0.016
552.25;0.02
552.5;0.02
552.75;0.024
553;0.016
553.25;0.02
553.5;0.02
553.75;0.024
554;0.016
554.25;0.02
554.5;0.02
554.75;0.024
555;0.016
555.25;0.018
555.5;0.02
555.75;0.024
556;0.016
556.25;0.018
556.5;0.02
556.75;0.024
557;0.016
557.25;0.02
557.5;0.018
557.75;0.026
558;0.016
558.25;0.018
558.5;0.018
558.75;0.024
559;0.016
559.25;0.018
559.5;0.018
559.75;0.024
560;0.016
560.25;0.018
560.5;0.018
560.75;0.024
561;0.016
561.25;0.022
561.5;0.02
561.75;0.024
562;0.016
562.25;0.02
562.5;0.018
562.75;0.024
563;0.016
563.25;0.02
563.5;0.02
563.75;0.024
564;0.016
564.25;0.02
564.5;0.02
564.75;0.024
565;0.016
565.25;0.02
565.5;0.018
565.75;0.024
566;0.016
566.25;0.02
566.5;0.02
566.75;0.024
567;0.016
567.25;0.02
567.5;0.02
567.75;0.024
568;0.016
568.25;0.018
568.5;0.02
568.75;0.024
569;0.016
569.25;0.02
569.5;0.02
569.75;0.024
570;0.016
570.25;0.02
570.5;0.02
570.75;0.024
571;0.016
571.25;0.02
571.5;0.02
571.75;0.024
572;0.016
572.25;0.02
572.5;0.02
572.75;0.024
573;0.016
573.25;0.02
573.5;0.02
573.75;0.024
574;0.016
574.25;0.02
574.5;0.02
574.75;0.024
575;0.016
575.25;0.02
575.5;0.02
575.75;0.024
576;0.016
576.25;0.022
576.5;0.02
576.75;0.024
577;0.016
577.25;0.02
577.5;0.022
577.75;0.024
578;0.016
578.25;0.02
578.5;0.018
578.75;0.024
579;0.016
579.25;0.02
579.5;0.02
579.75;0.024
580;0.016
580.25;0.02
580.5;0.022
580.75;0.024
581;0.016
581.25;0.022
581.5;0.022
581.75;0.024
582;0.016
582.25;0.02
582.5;0.02
582.75;0.024
583;0.016
583.25;0.02
583.5;0.02
583.75;0.024
584;0.016
584.25;0.02
584.5;0.02
584.75;0.024
585;0.016
585.25;0.02
585.5;0.02
585.75;0.024
586;0.016
586.25;0.02
586.5;0.02
586.75;0.024
587;0.016
587.25;0.022
587.5;0.02
587.75;0.024
588;0.016
588.25;0.02
588.5;0.02
588.75;0.024
589;0.016
589.25;0.02
589.5;0.02
589.75;0.024
590;0.016
590.25;0.02
590.5;0.02
590.75;0.024
591;0.016
591.25;0.02
591.5;0.02
591.75;0.292
592;0.018
592.25;0.286
592.5;0.288
592.75;0.292
593;0.282
593.25;0.288
593.5;0.288
593.75;0.292
594;0.282
594.25;0.288
594.5;0.288
594.75;0.446
595;-0.064
595.25;-0.064
595.5;0.192
595.75;0.446
596;-0.064
596.25;0.182
596.5;0.19
596.75;0.446
597;-0.064
597.25;0.19
597.5;0.126
597.75;0.446
598;-0.064
598.25;0.19
598.5;0.19
598.75;0.446
599;-0.064
599.25;0.32
599.5;0.064
599.75;0.446
600;-0.064
600.25;0.192
600.5;0.192
600.75;0.446
601;-0.064
601.25;0.19
601.5;0.182
601.75;0.446
602;-0.064
602.25;0.126
602.5;0.19
602.75;0.446
603;-0.064
603.25;0.194
603.5;0.192
603.75;0.446
604;-0.064
604.25;0.192
604.5;0.192
604.75;0.446
605;-0.064
605.25;0.192
605.5;-0.064
605.75;0.446
606;-0.064
606.25;0.19
606.5;0.158
606.75;0.446
607;-0.064
607.25;0.188
607.5;0.19
607.75;0.446
608;-0.064
608.25;0.192
608.5;0.192
608.75;0.446
609;-0.064
609.25;0.192
609.5;0.192
609.75;0.446
610;-0.064
610.25;0.19
610.5;0.174
610.75;0.446
611;-0.064
611.25;0.19
611.5;0.174
611.75;0.446
612;-0.064
612.25;0.192
612.5;0.192
612.75;0.446
613;-0.064
613.25;0.192
613.5;0.192
613.75;0.446
614;-0.064
614.25;0.192
614.5;0.192
614.75;0.446
615;-0.064
615.25;0.19
615.5;0.158
615.75;0.446
616;-0.064
616.25;0.19
616.5;0.19
616.75;0.446
617;-0.064
617.25;0.192
617.5;0.192
617.75;0.446
618;-0.064
618.25;0.192
618.5;0.192
618.75;0.446
619;-0.064
619.25;0.126
619.5;0.19
619.75;0.446
620;-0.064
620.25;0.19
620.5;0.19
620.75;0.446
621;-0.064
621.25;0.194
621.5;0.32
621.75;0.446
622;-0.064
622.25;0.192
622.5;-0.064
622.75;0.446
623;-0.064
623.25;0.194
623.5;-0.064
623.75;0.446
624;-0.064
624.25;0.19
624.5;0.19
624.75;0.446
625;-0.064
625.25;0.19
625.5;0.158
625.75;0.446
626;-0.064
626.25;0.192
626.5;0.064
626.75;0.446
627;-0.064
627.25;0.192
627.5;0.192
627.75;0.446
628;-0.064
628.25;0.174
628.5;0.19
628.75;0.446
629;-0.064
629.25;0.19
629.5;0.19
629.75;0.446
630;-0.064
630.25;0.192
630.5;0.192
630.75;0.446
631;-0.064
631.25;0.196
631.5;-0.064
631.75;0.446
632;-0.064
632.25;0.192
632.5;0.192
632.75;0.446
633;-0.064
633.25;0.19
633.5;0.19
633.75;0.446
634;-0.064
634.25;0.182
634.5;0.158
634.75;0.446
635;-0.064
635.25;0.192
635.5;-0.064
635.75;0.446
636;-0.064
636.25;0.194
636.5;0.192
636.75;0.446
637;-0.064
637.25;0.19
637.5;0.182
637.75;0.446
638;-0.064
638.25;0.174
638.5;0.15
638.75;0.446
639;-0.064
639.25;0.19
639.5;0.19
639.75;0.446
640;-0.064
640.25;0.192
640.5;0.192
640.75;0.446
641;-0.064
641.25;0.192
641.5;0.32
641.75;0.446
642;-0.064
642.25;0.19
642.5;0.19
642.75;0.446
643;-0.064
643.25;0.19
643.5;0.174
643.75;0.446
644;-0.064
644.25;0.192
644.5;0.192
644.75;0.446
645;-0.064
645.25;0.196
645.5;0.192
645.75;0.446
646;-0.064
646.25;0.19
646.5;0.19
646.75;0.446
647;-0.064
647.25;0.19
647.5;0.19
647.75;0.446
648;-0.064
648.25;0.19
648.5;0.19
648.75;0.446
649;-0.064
649.25;0.192
649.5;0.192
649.75;0.446
650;-0.064
650.25;0.192
650.5;0.192
650.75;0.446
651;-0.064
651.25;0.19
651.5;0.174
651.75;0.446
652;-0.064
652.25;0.19
652.5;0.182
652.75;0.446
653;-0.064
653.25;0.192
653.5;0.192
653.75;0.446
654;-0.064
654.25;0.192
654.5;0.192
654.75;0.446
655;-0.064
655.25;0.19
655.5;0.126
655.75;0.446
656;-0.064
656.25;0.182
656.5;0.126
656.75;0.446
657;-0.064
657.25;0.19
657.5;0.19
657.75;0.446
658;-0.064
658.25;0.192
658.5;0.192
658.75;0.446
659;-0.064
659.25;0.192
659.5;0.192
659.75;0.446
660;-0.064
660.25;0.19
660.5;0.19
660.75;0.446
661;-0.064
661.25;0.19
661.5;0.19
661.75;0.446
662;-0.064
662.25;0.192
662.5;0.192
662.75;0.446
663;-0.064
663.25;0.196
663.5;0.192
663.75;0.446
664;-0.064
664.25;0.19
664.5;0.19
664.75;0.446
665;-0.064
665.25;0.19
665.5;0.19
665.75;0.446
666;-0.064
666.25;0.19
666.5;0.158
666.75;0.446
667;-0.064
667.25;-0.064
667.5;0.192
667.75;0.446
668;-0.064
668.25;0.192
668.5;0.194
668.75;0.446
669;-0.064
669.25;0.19
669.5;0.174
669.75;0.446
670;-0.064
670.25;0.142
670.5;0.19
670.75;0.446
671;-0.064
671.25;0.194
671.5;0.192
671.75;0.446
672;-0.064
672.25;0.198
672.5;0.196
672.75;0.446
673;-0.064
673.25;0.192
673.5;0.192
673.75;0.446
674;-0.064
674.25;0.19
674.5;0.094
674.75;0.446
675;-0.064
675.25;0.166
675.5;0.19
675.75;0.446
676;-0.064
676.25;0.192
676.5;0.192
676.75;0.446
677;-0.064
677.25;0.192
677.5;0.192
677.75;0.446
678;-0.064
678.25;0.19
678.5;0.19
678.75;0.446
679;-0.064
679.25;0.19
679.5;0.126
679.75;0.446
680;-0.064
680.25;0.192
680.5;0.192
680.75;0.446
681;-0.064
681.25;0.192
681.5;0.192
681.75;0.446
682;-0.064
682.25;0.192
682.5;0.192
682.75;0.446
683;-0.064
683.25;0.19
683.5;0.19
683.75;0.446
684;-0.064
684.25;0.19
684.5;0.094
684.75;0.446
685;-0.064
685.25;0.192
685.5;0.192
685.75;0.446
686;-0.064
686.25;0.192
686.5;0.192
686.75;0.446
687;-0.064
687.25;0.19
687.5;0.19
687.75;0.446
688;-0.064
688.25;0.174
688.5;0.19
688.75;0.446
689;-0.064
689.25;0.192
689.5;0.194
689.75;0.446
690;-0.064
690.25;0.192
690.5;0.192
690.75;0.446
691;-0.064
691.25;0.192
691.5;0.192
691.75;0.446
692;-0.064
692.25;0.19
692.5;0.19
692.75;0.446
693;-0.064
693.25;0.19
693.5;0.19
693.75;0.446
694;-0.064
694.25;0.196
694.5;0.192
694.75;0.446
695;-0.064
695.25;0.32
695.5;0.192
695.75;0.446
696;-0.064
696.25;0.19
696.5;0.19
696.75;0.446
697;-0.064
697.25;0.19
697.5;0.19
697.75;0.446
698;-0.064
698.25;0.322
698.5;0.192
698.75;0.446
699;-0.064
699.25;0.192
699.5;0.192
699.75;0.446
700;-0.064
700.25;0.192
700.5;-0.064
700.75;0.446
701;-0.064
701.25;0.19
701.5;0.174
701.75;0.446
702;-0.064
702.25;0.19
702.5;0.19
702.75;0.446
703;-0.064
703.25;0.192
703.5;-0.064
703.75;0.446
704;-0.064
704.25;0.192
704.5;0.192
704.75;0.446
705;-0.064
705.25;0.126
705.5;0.19
705.75;0.446
706;-0.064
706.25;0.19
706.5;0.19
706.75;0.446
707;-0.064
707.25;0.19
707.5;0.126
707.75;0.446
708;-0.064
708.25;0.192
708.5;0.192
708.75;0.446
709;-0.064
709.25;0.192
709.5;0.32
709.75;0.446
710;-0.064
710.25;0.174
710.5;0.126
710.75;0.446
711;-0.064
711.25;0.19
711.5;0.126
711.75;0.446
712;-0.064
712.25;0.192
712.5;0.198
712.75;0.446
713;-0.064
713.25;0.192
713.5;0.192
713.75;0.446
714;-0.064
714.25;0.19
714.5;0.174
714.75;0.446
715;-0.064
715.25;0.126
715.5;0.19
715.75;0.446
716;-0.064
716.25;0.19
716.5;0.19
716.75;0.446
717;-0.064
717.25;0.196
717.5;0.192
717.75;0.446
718;-0.064
718.25;0.192
718.5;0.192
718.75;0.446
719;-0.064
719.25;0.19
719.5;0.126
719.75;0.446
720;-0.064
720.25;0.19
720.5;0.19
720.75;0.446
721;-0.064
721.25;-0.062
721.5;0.192
721.75;0.446
722;-0.064
722.25;0.192
722.5;0.192
722.75;0.446
723;-0.064
723.25;0.19
723.5;0.19
723.75;0.446
724;-0.064
724.25;0.182
724.5;0.174
724.75;0.446
725;-0.064
725.25;0.158
725.5;0.174
725.75;0.446
726;-0.064
726.25;0.192
726.5;0.194
726.75;0.446
727;-0.064
727.25;0.192
727.5;0.192
727.75;0.446
728;-0.064
728.25;0.126
728.5;0.158
728.75;0.446
729;-0.064
729.25;0.19
729.5;0.19
729.75;0.446
730;-0.064
730.25;0.192
730.5;0.192
730.75;0.446
731;-0.064
731.25;0.194
731.5;0.192
731.75;0.446
732;-0.064
732.25;0.19
732.5;0.182
732.75;0.446
733;-0.064
733.25;0.19
733.5;0.166
733.75;0.446
734;-0.064
734.25;0.19
734.5;0.19
734.75;0.446
735;-0.064
735.25;0.192
735.5;0.192
735.75;0.446
736;-0.064
736.25;0.192
736.5;0.192
736.75;0.446
737;-0.064
737.25;0.15
737.5;0.19
737.75;0.446
738;-0.064
738.25;0.19
738.5;0.19
738.75;0.446
739;-0.064
739.25;0.192
739.5;0.192
739.75;0.446
740;-0.064
740.25;0.192
740.5;0.32
740.75;0.446
741;-0.064
741.25;0.182
741.5;0.19
741.75;0.446
742;-0.064
742.25;0.19
742.5;0.126
742.75;0.446
743;-0.064
743.25;0.19
743.5;0.19
743.75;0.446
744;-0.064
744.25;0.192
744.5;-0.064
744.75;0.446
745;-0.064
745.25;0.192
745.5;0.192
745.75;0.446
746;-0.064
746.25;0.19
746.5;0.19
746.75;0.446
747;-0.064
747.25;0.094
747.5;0.158
747.75;0.446
748;-0.064
748.25;0.192
748.5;0.192
748.75;0.446
749;-0.064
749.25;0.194
749.5;0.192
749.75;0.446
750;-0.064
750.25;0.192
750.5;-0.064
750.75;0.446
751;-0.064
751.25;0.19
751.5;0.19
751.75;0.446
752;-0.064
752.25;0.19
752.5;0.19
752.75;0.446
753;-0.064
753.25;0.192
753.5;0.192
753.75;0.446
754;-0.064
754.25;0.192
754.5;-0.064
754.75;0.446
755;-0.064
755.25;0.158
755.5;0.19
755.75;0.446
756;-0.064
756.25;0.19
756.5;0.19
756.75;0.446
757;-0.064
757.25;0.192
757.5;0.32
757.75;0.446
758;-0.064
758.25;0.192
758.5;0.196
758.75;0.446
759;-0.064
759.25;0.196
759.5;0.192
759.75;0.446
