# Oscilloscope file ./4K-hall-20uA-U.bin
# Channel 2
Time / s;Voltage / V
0;0.07
0.25;0.074
0.5;0.066
0.75;0.07
1;0.07
1.25;0.074
1.5;0.066
1.75;0.072
2;0.07
2.25;0.074
2.5;0.064
2.75;0.07
3;0.07
3.25;0.074
3.5;0.066
3.75;0.072
4;0.072
4.25;0.074
4.5;0.066
4.75;0.07
5;0.072
5.25;0.076
5.5;0.068
5.75;0.072
6;0.074
6.25;0.076
6.5;0.068
6.75;0.074
7;0.074
7.25;0.078
7.5;0.068
7.75;0.074
8;0.074
8.25;0.078
8.5;0.068
8.75;0.074
9;0.074
9.25;0.078
9.5;0.07
9.75;0.074
10;0.074
10.25;0.08
10.5;0.07
10.75;0.074
11;0.074
11.25;0.078
11.5;0.072
11.75;0.076
12;0.074
12.25;0.08
12.5;0.07
12.75;0.076
13;0.076
13.25;0.08
13.5;0.072
13.75;0.076
14;0.076
14.25;0.08
14.5;0.072
14.75;0.076
15;0.078
15.25;0.08
15.5;0.072
15.75;0.076
16;0.076
16.25;0.082
16.5;0.074
16.75;0.08
17;0.078
17.25;0.084
17.5;0.074
17.75;0.08
18;0.076
18.25;0.084
18.5;0.076
18.75;0.078
19;0.078
19.25;0.084
19.5;0.076
19.75;0.08
20;0.08
20.25;0.084
20.5;0.076
20.75;0.08
21;0.082
21.25;0.086
21.5;0.078
21.75;0.082
22;0.082
22.25;0.086
22.5;0.078
22.75;0.082
23;0.082
23.25;0.086
23.5;0.078
23.75;0.082
24;0.082
24.25;0.088
24.5;0.078
24.75;0.084
25;0.082
25.25;0.088
25.5;0.078
25.75;0.082
26;0.086
26.25;0.088
26.5;0.08
26.75;0.084
27;0.086
27.25;0.09
27.5;0.08
27.75;0.084
28;0.084
28.25;0.088
28.5;0.08
28.75;0.084
29;0.082
29.25;0.09
29.5;0.082
29.75;0.082
30;0.084
30.25;0.09
30.5;0.082
30.75;0.086
31;0.086
31.25;0.09
31.5;0.082
31.75;0.086
32;0.086
32.25;0.09
32.5;0.082
32.75;0.086
33;0.086
33.25;0.092
33.5;0.082
33.75;0.088
34;0.086
34.25;0.092
34.5;0.084
34.75;0.086
35;0.086
35.25;0.092
35.5;0.084
35.75;0.088
36;0.088
36.25;0.092
36.5;0.082
36.75;0.09
37;0.088
37.25;0.092
37.5;0.084
37.75;0.088
38;0.088
38.25;0.092
38.5;0.084
38.75;0.088
39;0.088
39.25;0.094
39.5;0.084
39.75;0.09
40;0.088
40.25;0.092
40.5;0.084
40.75;0.09
41;0.09
41.25;0.094
41.5;0.086
41.75;0.088
42;0.09
42.25;0.094
42.5;0.086
42.75;0.09
43;0.09
43.25;0.094
43.5;0.084
43.75;0.09
44;0.09
44.25;0.094
44.5;0.086
44.75;0.09
45;0.09
45.25;0.094
45.5;0.086
45.75;0.09
46;0.09
46.25;0.094
46.5;0.086
46.75;0.09
47;0.09
47.25;0.094
47.5;0.086
47.75;0.09
48;0.09
48.25;0.094
48.5;0.086
48.75;0.09
49;0.09
49.25;0.096
49.5;0.088
49.75;0.09
50;0.092
50.25;0.098
50.5;0.086
50.75;0.09
51;0.092
51.25;0.096
51.5;0.088
51.75;0.092
52;0.094
52.25;0.096
52.5;0.088
52.75;0.092
53;0.092
53.25;0.098
53.5;0.088
53.75;0.094
54;0.094
54.25;0.098
54.5;0.088
54.75;0.094
55;0.094
55.25;0.098
55.5;0.088
55.75;0.094
56;0.094
56.25;0.098
56.5;0.09
56.75;0.094
57;0.094
57.25;0.098
57.5;0.09
57.75;0.094
58;0.094
58.25;0.1
58.5;0.09
58.75;0.094
59;0.096
59.25;0.1
59.5;0.09
59.75;0.096
60;0.094
60.25;0.102
60.5;0.09
60.75;0.096
61;0.096
61.25;0.102
61.5;0.092
61.75;0.098
62;0.098
62.25;0.102
62.5;0.094
62.75;0.098
63;0.098
63.25;0.102
63.5;0.092
63.75;0.098
64;0.098
64.25;0.102
64.5;0.094
64.75;0.1
65;0.1
65.25;0.104
65.5;0.094
65.75;0.098
66;0.1
66.25;0.104
66.5;0.094
66.75;0.102
67;0.1
67.25;0.104
67.5;0.096
67.75;0.104
68;0.1
68.25;0.104
68.5;0.096
68.75;0.1
69;0.102
69.25;0.106
69.5;0.098
69.75;0.102
70;0.102
70.25;0.106
70.5;0.098
70.75;0.104
71;0.104
71.25;0.108
71.5;0.096
71.75;0.102
72;0.102
72.25;0.108
72.5;0.1
72.75;0.104
73;0.106
73.25;0.108
73.5;0.1
73.75;0.104
74;0.104
74.25;0.11
74.5;0.102
74.75;0.104
75;0.106
75.25;0.11
75.5;0.102
75.75;0.106
76;0.106
76.25;0.112
76.5;0.102
76.75;0.106
77;0.106
77.25;0.112
77.5;0.1
77.75;0.108
78;0.106
78.25;0.114
78.5;0.104
78.75;0.108
79;0.108
79.25;0.114
79.5;0.104
79.75;0.11
80;0.108
80.25;0.114
80.5;0.106
80.75;0.112
81;0.11
81.25;0.116
81.5;0.106
81.75;0.112
82;0.11
82.25;0.116
82.5;0.108
82.75;0.112
83;0.112
83.25;0.116
83.5;0.108
83.75;0.112
84;0.114
84.25;0.118
84.5;0.108
84.75;0.114
85;0.112
85.25;0.118
85.5;0.11
85.75;0.114
86;0.114
86.25;0.12
86.5;0.112
86.75;0.114
87;0.116
87.25;0.12
87.5;0.112
87.75;0.116
88;0.118
88.25;0.122
88.5;0.112
88.75;0.118
89;0.116
89.25;0.122
89.5;0.114
89.75;0.118
90;0.118
90.25;0.122
90.5;0.114
90.75;0.118
91;0.118
91.25;0.124
91.5;0.114
91.75;0.12
92;0.12
92.25;0.124
92.5;0.116
92.75;0.12
93;0.122
93.25;0.126
93.5;0.116
93.75;0.12
94;0.122
94.25;0.126
94.5;0.118
94.75;0.122
95;0.122
95.25;0.128
95.5;0.118
95.75;0.122
96;0.124
96.25;0.128
96.5;0.118
96.75;0.124
97;0.124
97.25;0.128
97.5;0.118
97.75;0.124
98;0.124
98.25;0.13
98.5;0.12
98.75;0.124
99;0.124
99.25;0.13
99.5;0.12
99.75;0.126
100;0.126
100.25;0.13
100.5;0.122
100.75;0.126
101;0.126
101.25;0.13
101.5;0.122
101.75;0.126
102;0.126
102.25;0.132
102.5;0.122
102.75;0.126
103;0.13
103.25;0.132
103.5;0.124
103.75;0.128
104;0.128
104.25;0.132
104.5;0.124
104.75;0.126
105;0.128
105.25;0.134
105.5;0.124
105.75;0.128
106;0.13
106.25;0.132
106.5;0.122
106.75;0.13
107;0.128
107.25;0.134
107.5;0.124
107.75;0.13
108;0.13
108.25;0.134
108.5;0.126
108.75;0.13
109;0.13
109.25;0.136
109.5;0.124
109.75;0.132
110;0.13
110.25;0.134
110.5;0.126
110.75;0.13
111;0.13
111.25;0.134
111.5;0.126
111.75;0.13
112;0.13
112.25;0.136
112.5;0.124
112.75;0.132
113;0.13
113.25;0.136
113.5;0.126
113.75;0.132
114;0.13
114.25;0.136
114.5;0.124
114.75;0.13
115;0.132
115.25;0.136
115.5;0.126
115.75;0.132
116;0.132
116.25;0.136
116.5;0.126
116.75;0.132
117;0.132
117.25;0.136
117.5;0.128
117.75;0.13
118;0.13
118.25;0.136
118.5;0.126
118.75;0.132
119;0.132
119.25;0.136
119.5;0.128
119.75;0.132
120;0.13
120.25;0.136
120.5;0.128
120.75;0.132
121;0.132
121.25;0.136
121.5;0.128
121.75;0.134
122;0.132
122.25;0.138
122.5;0.128
122.75;0.134
123;0.132
123.25;0.138
123.5;0.128
123.75;0.132
124;0.132
124.25;0.136
124.5;0.128
124.75;0.134
125;0.13
125.25;0.136
125.5;0.128
125.75;0.132
126;0.132
126.25;0.138
126.5;0.128
126.75;0.132
127;0.136
127.25;0.138
127.5;0.128
127.75;0.132
128;0.132
128.25;0.138
128.5;0.126
128.75;0.132
129;0.134
129.25;0.136
129.5;0.128
129.75;0.132
130;0.134
130.25;0.138
130.5;0.128
130.75;0.132
131;0.134
131.25;0.136
131.5;0.128
131.75;0.132
132;0.132
132.25;0.138
132.5;0.128
132.75;0.132
133;0.132
133.25;0.138
133.5;0.128
133.75;0.134
134;0.134
134.25;0.136
134.5;0.128
134.75;0.132
135;0.132
135.25;0.136
135.5;0.13
135.75;0.134
136;0.134
136.25;0.138
136.5;0.128
136.75;0.132
137;0.132
137.25;0.138
137.5;0.128
137.75;0.134
138;0.134
138.25;0.138
138.5;0.128
138.75;0.134
139;0.134
139.25;0.136
139.5;0.13
139.75;0.132
140;0.132
140.25;0.138
140.5;0.128
140.75;0.134
141;0.132
141.25;0.138
141.5;0.13
141.75;0.134
142;0.132
142.25;0.138
142.5;0.128
142.75;0.134
143;0.134
143.25;0.138
143.5;0.128
143.75;0.132
144;0.134
144.25;0.138
144.5;0.128
144.75;0.136
145;0.134
145.25;0.138
145.5;0.128
145.75;0.134
146;0.134
146.25;0.138
146.5;0.13
146.75;0.134
147;0.134
147.25;0.138
147.5;0.128
147.75;0.132
148;0.134
148.25;0.138
148.5;0.128
148.75;0.134
149;0.134
149.25;0.138
149.5;0.13
149.75;0.132
150;0.132
150.25;0.138
150.5;0.13
150.75;0.134
151;0.134
151.25;0.138
151.5;0.128
151.75;0.132
152;0.134
152.25;0.138
152.5;0.13
152.75;0.134
153;0.134
153.25;0.14
153.5;0.13
153.75;0.134
154;0.134
154.25;0.138
154.5;0.13
154.75;0.134
155;0.134
155.25;0.138
155.5;0.13
155.75;0.134
156;0.134
156.25;0.14
156.5;0.13
156.75;0.134
157;0.134
157.25;0.14
157.5;0.13
157.75;0.134
158;0.136
158.25;0.14
158.5;0.13
158.75;0.136
159;0.134
159.25;0.138
159.5;0.13
159.75;0.136
160;0.134
160.25;0.14
160.5;0.13
160.75;0.134
161;0.134
161.25;0.14
161.5;0.13
161.75;0.136
162;0.136
162.25;0.14
162.5;0.132
162.75;0.136
163;0.136
163.25;0.14
163.5;0.132
163.75;0.134
164;0.136
164.25;0.14
164.5;0.132
164.75;0.136
165;0.136
165.25;0.142
165.5;0.132
165.75;0.136
166;0.138
166.25;0.142
166.5;0.132
166.75;0.138
167;0.138
167.25;0.142
167.5;0.132
167.75;0.138
168;0.138
168.25;0.142
168.5;0.132
168.75;0.138
169;0.14
169.25;0.142
169.5;0.134
169.75;0.14
170;0.138
170.25;0.144
170.5;0.134
170.75;0.138
171;0.138
171.25;0.144
171.5;0.134
171.75;0.14
172;0.14
172.25;0.144
172.5;0.136
172.75;0.14
173;0.138
173.25;0.144
173.5;0.136
173.75;0.142
174;0.14
174.25;0.144
174.5;0.136
174.75;0.142
175;0.142
175.25;0.144
175.5;0.138
175.75;0.142
176;0.14
176.25;0.148
176.5;0.138
176.75;0.142
177;0.142
177.25;0.146
177.5;0.138
177.75;0.142
178;0.142
178.25;0.148
178.5;0.14
178.75;0.144
179;0.142
179.25;0.148
179.5;0.138
179.75;0.146
180;0.144
180.25;0.148
180.5;0.108
180.75;0.146
181;0.144
181.25;0.15
181.5;0.142
181.75;0.146
182;0.146
182.25;0.15
182.5;0.142
182.75;0.146
183;0.144
183.25;0.15
183.5;0.142
183.75;0.146
184;0.146
184.25;0.15
184.5;0.142
184.75;0.146
185;0.148
185.25;0.152
185.5;0.144
185.75;0.146
186;0.148
186.25;0.154
186.5;0.144
186.75;0.148
187;0.148
187.25;0.154
187.5;0.144
187.75;0.148
188;0.15
188.25;0.154
188.5;0.146
188.75;0.15
189;0.15
189.25;0.154
189.5;0.146
189.75;0.15
190;0.15
190.25;0.156
190.5;0.148
190.75;0.152
191;0.152
191.25;0.156
191.5;0.148
191.75;0.152
192;0.156
192.25;0.156
192.5;0.148
192.75;0.152
193;0.154
193.25;0.158
193.5;0.15
193.75;0.154
194;0.154
194.25;0.158
194.5;0.15
194.75;0.154
195;0.154
195.25;0.158
195.5;0.15
195.75;0.154
196;0.154
196.25;0.16
196.5;0.15
196.75;0.156
197;0.156
197.25;0.16
197.5;0.15
197.75;0.156
198;0.156
198.25;0.16
198.5;0.152
198.75;0.156
199;0.158
199.25;0.162
199.5;0.152
199.75;0.158
200;0.156
200.25;0.162
200.5;0.154
200.75;0.158
201;0.158
201.25;0.164
201.5;0.154
201.75;0.158
202;0.16
202.25;0.164
202.5;0.156
202.75;0.158
203;0.16
203.25;0.164
203.5;0.156
203.75;0.16
204;0.16
204.25;0.166
204.5;0.158
204.75;0.16
205;0.16
205.25;0.166
205.5;0.156
205.75;0.162
206;0.16
206.25;0.166
206.5;0.158
206.75;0.162
207;0.162
207.25;0.168
207.5;0.158
207.75;0.162
208;0.162
208.25;0.168
208.5;0.158
208.75;0.162
209;0.164
209.25;0.168
209.5;0.16
209.75;0.164
210;0.164
210.25;0.17
210.5;0.162
210.75;0.164
211;0.164
211.25;0.17
211.5;0.162
211.75;0.166
212;0.166
212.25;0.17
212.5;0.162
212.75;0.166
213;0.166
213.25;0.17
213.5;0.164
213.75;0.168
214;0.17
214.25;0.172
214.5;0.164
214.75;0.166
215;0.168
215.25;0.172
215.5;0.164
215.75;0.168
216;0.17
216.25;0.174
216.5;0.164
216.75;0.17
217;0.168
217.25;0.174
217.5;0.166
217.75;0.168
218;0.17
218.25;0.174
218.5;0.166
218.75;0.17
219;0.17
219.25;0.176
219.5;0.166
219.75;0.17
220;0.174
220.25;0.176
220.5;0.166
220.75;0.172
221;0.172
221.25;0.176
221.5;0.168
221.75;0.172
222;0.172
222.25;0.178
222.5;0.168
222.75;0.174
223;0.172
223.25;0.18
223.5;0.17
223.75;0.174
224;0.174
224.25;0.178
224.5;0.17
224.75;0.174
225;0.174
225.25;0.178
225.5;0.172
225.75;0.176
226;0.174
226.25;0.18
226.5;0.172
226.75;0.176
227;0.176
227.25;0.18
227.5;0.172
227.75;0.176
228;0.178
228.25;0.182
228.5;0.172
228.75;0.178
229;0.176
229.25;0.182
229.5;0.174
229.75;0.178
230;0.178
230.25;0.182
230.5;0.174
230.75;0.178
231;0.18
231.25;0.184
231.5;0.174
231.75;0.18
232;0.18
232.25;0.184
232.5;0.176
232.75;0.18
233;0.182
233.25;0.184
233.5;0.176
233.75;0.18
234;0.18
234.25;0.186
234.5;0.178
234.75;0.182
235;0.182
235.25;0.186
235.5;0.178
235.75;0.182
236;0.184
236.25;0.186
236.5;0.178
236.75;0.184
237;0.184
237.25;0.188
237.5;0.18
237.75;0.184
238;0.186
238.25;0.188
238.5;0.18
238.75;0.186
239;0.186
239.25;0.19
239.5;0.182
239.75;0.186
240;0.186
240.25;0.19
240.5;0.182
240.75;0.186
241;0.188
241.25;0.19
241.5;0.184
241.75;0.186
242;0.186
242.25;0.192
242.5;0.184
242.75;0.188
243;0.188
243.25;0.192
243.5;0.184
243.75;0.188
244;0.19
244.25;0.194
244.5;0.186
244.75;0.19
245;0.19
245.25;0.194
245.5;0.186
245.75;0.192
246;0.19
246.25;0.194
246.5;0.188
246.75;0.192
247;0.192
247.25;0.196
247.5;0.188
247.75;0.192
248;0.192
248.25;0.198
248.5;0.188
248.75;0.194
249;0.194
249.25;0.198
249.5;0.19
249.75;0.194
250;0.194
250.25;0.198
250.5;0.19
250.75;0.196
251;0.196
251.25;0.2
251.5;0.192
251.75;0.198
252;0.198
252.25;0.202
252.5;0.192
252.75;0.198
253;0.196
253.25;0.202
253.5;0.194
253.75;0.198
254;0.198
254.25;0.202
254.5;0.194
254.75;0.2
255;0.198
255.25;0.204
255.5;0.196
255.75;0.2
256;0.2
256.25;0.206
256.5;0.196
256.75;0.202
257;0.2
257.25;0.206
257.5;0.198
257.75;0.2
258;0.202
258.25;0.208
258.5;0.198
258.75;0.202
259;0.202
259.25;0.208
259.5;0.2
259.75;0.204
260;0.204
260.25;0.208
260.5;0.2
260.75;0.206
261;0.206
261.25;0.21
261.5;0.202
261.75;0.206
262;0.204
262.25;0.212
262.5;0.204
262.75;0.21
263;0.208
263.25;0.212
263.5;0.204
263.75;0.21
264;0.208
264.25;0.214
264.5;0.206
264.75;0.21
265;0.21
265.25;0.216
265.5;0.206
265.75;0.212
266;0.212
266.25;0.216
266.5;0.206
266.75;0.212
267;0.214
267.25;0.216
267.5;0.208
267.75;0.214
268;0.214
268.25;0.218
268.5;0.21
268.75;0.214
269;0.216
269.25;0.22
269.5;0.21
269.75;0.216
270;0.216
270.25;0.22
270.5;0.212
270.75;0.218
271;0.216
271.25;0.222
271.5;0.212
271.75;0.218
272;0.218
272.25;0.224
272.5;0.214
272.75;0.218
273;0.22
273.25;0.224
273.5;0.216
273.75;0.22
274;0.22
274.25;0.226
274.5;0.216
274.75;0.222
275;0.224
275.25;0.228
275.5;0.218
275.75;0.222
276;0.222
276.25;0.228
276.5;0.22
276.75;0.226
277;0.224
277.25;0.23
277.5;0.22
277.75;0.224
278;0.226
278.25;0.23
278.5;0.222
278.75;0.228
279;0.226
279.25;0.232
279.5;0.222
279.75;0.228
280;0.228
280.25;0.232
280.5;0.224
280.75;0.23
281;0.23
281.25;0.234
281.5;0.226
281.75;0.23
282;0.23
282.25;0.236
282.5;0.226
282.75;0.232
283;0.232
283.25;0.236
283.5;0.226
283.75;0.234
284;0.232
284.25;0.238
284.5;0.228
284.75;0.234
285;0.234
285.25;0.238
285.5;0.23
285.75;0.234
286;0.236
286.25;0.24
286.5;0.23
286.75;0.236
287;0.238
287.25;0.24
287.5;0.232
287.75;0.236
288;0.238
288.25;0.244
288.5;0.232
288.75;0.238
289;0.24
289.25;0.242
289.5;0.234
289.75;0.24
290;0.24
290.25;0.244
290.5;0.236
290.75;0.24
291;0.24
291.25;0.246
291.5;0.236
291.75;0.242
292;0.242
292.25;0.246
292.5;0.238
292.75;0.242
293;0.242
293.25;0.25
293.5;0.24
293.75;0.244
294;0.242
294.25;0.248
294.5;0.24
294.75;0.246
295;0.244
295.25;0.25
295.5;0.24
295.75;0.246
296;0.246
296.25;0.252
296.5;0.242
296.75;0.246
297;0.246
297.25;0.25
297.5;0.242
297.75;0.246
298;0.246
298.25;0.252
298.5;0.242
298.75;0.248
299;0.246
299.25;0.252
299.5;0.244
299.75;0.248
300;0.25
300.25;0.254
300.5;0.246
300.75;0.25
301;0.248
301.25;0.256
301.5;0.246
301.75;0.252
302;0.25
302.25;0.256
302.5;0.248
302.75;0.252
303;0.25
303.25;0.256
303.5;0.248
303.75;0.252
304;0.252
304.25;0.258
304.5;0.248
304.75;0.254
305;0.254
305.25;0.258
305.5;0.25
305.75;0.252
306;0.254
306.25;0.258
306.5;0.25
306.75;0.254
307;0.252
307.25;0.258
307.5;0.25
307.75;0.254
308;0.254
308.25;0.26
308.5;0.25
308.75;0.258
309;0.256
309.25;0.26
309.5;0.252
309.75;0.254
310;0.254
310.25;0.262
310.5;0.252
310.75;0.256
311;0.256
311.25;0.26
311.5;0.252
311.75;0.256
312;0.256
312.25;0.262
312.5;0.254
312.75;0.258
313;0.258
313.25;0.262
313.5;0.254
313.75;0.258
314;0.258
314.25;0.264
314.5;0.252
314.75;0.258
315;0.258
315.25;0.262
315.5;0.252
315.75;0.258
316;0.26
316.25;0.262
316.5;0.254
316.75;0.258
317;0.26
317.25;0.266
317.5;0.256
317.75;0.26
318;0.26
318.25;0.264
318.5;0.256
318.75;0.26
319;0.26
319.25;0.264
319.5;0.256
319.75;0.26
320;0.26
320.25;0.264
320.5;0.256
320.75;0.26
321;0.26
321.25;0.266
321.5;0.256
321.75;0.26
322;0.26
322.25;0.266
322.5;0.256
322.75;0.26
323;0.26
323.25;0.266
323.5;0.258
323.75;0.262
324;0.262
324.25;0.266
324.5;0.256
324.75;0.262
325;0.26
325.25;0.266
325.5;0.258
325.75;0.262
326;0.262
326.25;0.266
326.5;0.258
326.75;0.262
327;0.262
327.25;0.268
327.5;0.258
327.75;0.262
328;0.262
328.25;0.266
328.5;0.258
328.75;0.262
329;0.264
329.25;0.266
329.5;0.258
329.75;0.264
330;0.262
330.25;0.266
330.5;0.258
330.75;0.262
331;0.262
331.25;0.268
331.5;0.258
331.75;0.262
332;0.262
332.25;0.268
332.5;0.26
332.75;0.264
333;0.264
333.25;0.268
333.5;0.26
333.75;0.262
334;0.264
334.25;0.268
334.5;0.258
334.75;0.262
335;0.262
335.25;0.268
335.5;0.26
335.75;0.262
336;0.262
336.25;0.268
336.5;0.26
336.75;0.264
337;0.264
337.25;0.268
337.5;0.26
337.75;0.266
338;0.264
338.25;0.268
338.5;0.258
338.75;0.264
339;0.262
339.25;0.266
339.5;0.26
339.75;0.264
340;0.264
340.25;0.268
340.5;0.26
340.75;0.264
341;0.262
341.25;0.27
341.5;0.26
341.75;0.262
342;0.264
342.25;0.27
342.5;0.258
342.75;0.262
343;0.264
343.25;0.268
343.5;0.26
343.75;0.262
344;0.264
344.25;0.268
344.5;0.26
344.75;0.264
345;0.264
345.25;0.268
345.5;0.26
345.75;0.264
346;0.264
346.25;0.268
346.5;0.26
346.75;0.264
347;0.262
347.25;0.268
347.5;0.26
347.75;0.262
348;0.264
348.25;0.268
348.5;0.26
348.75;0.266
349;0.264
349.25;0.268
349.5;0.26
349.75;0.264
350;0.264
350.25;0.268
350.5;0.26
350.75;0.264
351;0.264
351.25;0.268
351.5;0.258
351.75;0.266
352;0.266
352.25;0.27
352.5;0.26
352.75;0.266
353;0.264
353.25;0.27
353.5;0.26
353.75;0.264
354;0.264
354.25;0.268
354.5;0.26
354.75;0.266
355;0.262
355.25;0.268
355.5;0.26
355.75;0.264
356;0.264
356.25;0.268
356.5;0.26
356.75;0.264
357;0.264
357.25;0.268
357.5;0.26
357.75;0.266
358;0.264
358.25;0.268
358.5;0.258
358.75;0.264
359;0.264
359.25;0.27
359.5;0.26
359.75;0.266
360;0.264
360.25;0.268
360.5;0.26
360.75;0.264
361;0.264
361.25;0.27
361.5;0.26
361.75;0.264
362;0.262
362.25;0.27
362.5;0.26
362.75;0.264
363;0.264
363.25;0.27
363.5;0.26
363.75;0.264
364;0.262
364.25;0.268
364.5;0.26
364.75;0.264
365;0.264
365.25;0.27
365.5;0.26
365.75;0.262
366;0.264
366.25;0.268
366.5;0.26
366.75;0.264
367;0.264
367.25;0.268
367.5;0.26
367.75;0.264
368;0.264
368.25;0.268
368.5;0.26
368.75;0.264
369;0.264
369.25;0.27
369.5;0.26
369.75;0.264
370;0.264
370.25;0.27
370.5;0.26
370.75;0.266
371;0.264
371.25;0.268
371.5;0.26
371.75;0.266
372;0.264
372.25;0.27
372.5;0.258
372.75;0.264
373;0.266
373.25;0.268
373.5;0.26
373.75;0.264
374;0.264
374.25;0.268
374.5;0.26
374.75;0.264
375;0.266
375.25;0.268
375.5;0.26
375.75;0.264
376;0.266
376.25;0.268
376.5;0.26
376.75;0.264
377;0.266
377.25;0.27
377.5;0.26
377.75;0.266
378;0.264
378.25;0.27
378.5;0.26
378.75;0.266
379;0.266
379.25;0.268
379.5;0.26
379.75;0.266
380;0.264
380.25;0.27
380.5;0.26
380.75;0.264
381;0.264
381.25;0.27
381.5;0.26
381.75;0.266
382;0.264
382.25;0.27
382.5;0.26
382.75;0.264
383;0.266
383.25;0.268
383.5;0.26
383.75;0.264
384;0.264
384.25;0.27
384.5;0.26
384.75;0.264
385;0.264
385.25;0.268
385.5;0.26
385.75;0.264
386;0.264
386.25;0.27
386.5;0.26
386.75;0.262
387;0.264
387.25;0.27
387.5;0.26
387.75;0.264
388;0.266
388.25;0.27
388.5;0.26
388.75;0.264
389;0.264
389.25;0.27
389.5;0.26
389.75;0.262
390;0.266
390.25;0.27
390.5;0.26
390.75;0.264
391;0.264
391.25;0.27
391.5;0.26
391.75;0.264
392;0.264
392.25;0.268
392.5;0.26
392.75;0.264
393;0.264
393.25;0.268
393.5;0.26
393.75;0.264
394;0.264
394.25;0.27
394.5;0.26
394.75;0.264
395;0.264
395.25;0.27
395.5;0.26
395.75;0.264
396;0.264
396.25;0.27
396.5;0.26
396.75;0.264
397;0.266
397.25;0.27
397.5;0.26
397.75;0.266
398;0.264
398.25;0.27
398.5;0.258
398.75;0.264
399;0.264
399.25;0.27
399.5;0.26
399.75;0.266
400;0.266
400.25;0.268
400.5;0.26
400.75;0.264
401;0.264
401.25;0.27
401.5;0.26
401.75;0.264
402;0.264
402.25;0.27
402.5;0.26
402.75;0.264
403;0.264
403.25;0.27
403.5;0.26
403.75;0.264
404;0.264
404.25;0.268
404.5;0.26
404.75;0.264
405;0.264
405.25;0.268
405.5;0.26
405.75;0.264
406;0.264
406.25;0.27
406.5;0.26
406.75;0.264
407;0.264
407.25;0.27
407.5;0.26
407.75;0.264
408;0.264
408.25;0.27
408.5;0.26
408.75;0.264
409;0.264
409.25;0.27
409.5;0.26
409.75;0.264
410;0.264
410.25;0.27
410.5;0.258
410.75;0.264
411;0.264
411.25;0.27
411.5;0.26
411.75;0.266
412;0.266
412.25;0.27
412.5;0.26
412.75;0.264
413;0.266
413.25;0.268
413.5;0.26
413.75;0.266
414;0.264
414.25;0.268
414.5;0.26
414.75;0.264
415;0.264
415.25;0.27
415.5;0.26
415.75;0.262
416;0.262
416.25;0.27
416.5;0.258
416.75;0.264
417;0.264
417.25;0.268
417.5;0.26
417.75;0.264
418;0.264
418.25;0.268
418.5;0.258
418.75;0.264
419;0.266
419.25;0.27
419.5;0.26
419.75;0.266
420;0.264
420.25;0.27
420.5;0.26
420.75;0.266
421;0.264
421.25;0.27
421.5;0.258
421.75;0.264
422;0.264
422.25;0.268
422.5;0.26
422.75;0.264
423;0.264
423.25;0.27
423.5;0.258
423.75;0.264
424;0.264
424.25;0.27
424.5;0.26
424.75;0.264
425;0.264
425.25;0.27
425.5;0.26
425.75;0.266
426;0.264
426.25;0.27
426.5;0.258
426.75;0.264
427;0.264
427.25;0.268
427.5;0.258
427.75;0.266
428;0.264
428.25;0.27
428.5;0.26
428.75;0.264
429;0.266
429.25;0.268
429.5;0.26
429.75;0.264
430;0.262
430.25;0.27
430.5;0.26
430.75;0.264
431;0.266
431.25;0.27
431.5;0.26
431.75;0.264
432;0.264
432.25;0.268
432.5;0.258
432.75;0.264
433;0.264
433.25;0.27
433.5;0.26
433.75;0.264
434;0.264
434.25;0.27
434.5;0.26
434.75;0.264
435;0.264
435.25;0.27
435.5;0.26
435.75;0.264
436;0.264
436.25;0.27
436.5;0.26
436.75;0.264
437;0.264
437.25;0.27
437.5;0.254
437.75;0.264
438;0.264
438.25;0.268
438.5;0.26
438.75;0.264
439;0.266
439.25;0.27
439.5;0.26
439.75;0.264
440;0.266
440.25;0.272
440.5;0.26
440.75;0.264
441;0.266
441.25;0.268
441.5;0.26
441.75;0.264
442;0.264
442.25;0.268
442.5;0.26
442.75;0.264
443;0.264
443.25;0.27
443.5;0.258
443.75;0.264
444;0.264
444.25;0.27
444.5;0.26
444.75;0.264
445;0.266
445.25;0.27
445.5;0.26
445.75;0.262
446;0.264
446.25;0.268
446.5;0.26
446.75;0.264
447;0.264
447.25;0.268
447.5;0.26
447.75;0.262
448;0.264
448.25;0.27
448.5;0.26
448.75;0.266
449;0.264
449.25;0.27
449.5;0.26
449.75;0.264
450;0.262
450.25;0.27
450.5;0.26
450.75;0.264
451;0.264
451.25;0.27
451.5;0.26
451.75;0.264
452;0.266
452.25;0.27
452.5;0.26
452.75;0.264
453;0.264
453.25;0.27
453.5;0.26
453.75;0.264
454;0.264
454.25;0.27
454.5;0.26
454.75;0.264
455;0.266
455.25;0.27
455.5;0.26
455.75;0.264
456;0.268
456.25;0.27
456.5;0.26
456.75;0.264
457;0.264
457.25;0.27
457.5;0.26
457.75;0.264
458;0.264
458.25;0.27
458.5;0.26
458.75;0.264
459;0.264
459.25;0.268
459.5;0.26
459.75;0.264
460;0.264
460.25;0.27
460.5;0.26
460.75;0.264
461;0.264
461.25;0.268
461.5;0.26
461.75;0.264
462;0.262
462.25;0.27
462.5;0.26
462.75;0.266
463;0.264
463.25;0.27
463.5;0.26
463.75;0.264
464;0.266
464.25;0.268
464.5;0.26
464.75;0.266
465;0.264
465.25;0.27
465.5;0.26
465.75;0.266
466;0.264
466.25;0.27
466.5;0.26
466.75;0.264
467;0.264
467.25;0.27
467.5;0.258
467.75;0.264
468;0.264
468.25;0.27
468.5;0.256
468.75;0.264
469;0.264
469.25;0.27
469.5;0.26
469.75;0.266
470;0.264
470.25;0.27
470.5;0.26
470.75;0.264
471;0.264
471.25;0.27
471.5;0.26
471.75;0.266
472;0.264
472.25;0.27
472.5;0.26
472.75;0.264
473;0.266
473.25;0.268
473.5;0.26
473.75;0.266
474;0.264
474.25;0.27
474.5;0.26
474.75;0.264
475;0.266
475.25;0.268
475.5;0.26
475.75;0.266
476;0.266
476.25;0.27
476.5;0.26
476.75;0.264
477;0.264
477.25;0.268
477.5;0.258
477.75;0.264
478;0.264
478.25;0.27
478.5;0.26
478.75;0.266
479;0.264
479.25;0.268
479.5;0.26
479.75;0.264
480;0.264
480.25;0.27
480.5;0.26
480.75;0.264
481;0.264
481.25;0.27
481.5;0.26
481.75;0.264
482;0.262
482.25;0.268
482.5;0.26
482.75;0.262
483;0.264
483.25;0.27
483.5;0.26
483.75;0.264
484;0.264
484.25;0.268
484.5;0.26
484.75;0.264
485;0.264
485.25;0.268
485.5;0.258
485.75;0.264
486;0.262
486.25;0.268
486.5;0.258
486.75;0.264
487;0.264
487.25;0.268
487.5;0.258
487.75;0.264
488;0.264
488.25;0.27
488.5;0.26
488.75;0.264
489;0.266
489.25;0.268
489.5;0.26
489.75;0.264
490;0.264
490.25;0.268
490.5;0.258
490.75;0.264
491;0.264
491.25;0.268
491.5;0.26
491.75;0.264
492;0.264
492.25;0.268
492.5;0.258
492.75;0.264
493;0.264
493.25;0.27
493.5;0.26
493.75;0.264
494;0.264
494.25;0.268
494.5;0.26
494.75;0.264
495;0.264
495.25;0.268
495.5;0.26
495.75;0.264
496;0.264
496.25;0.268
496.5;0.26
496.75;0.264
497;0.262
497.25;0.268
497.5;0.26
497.75;0.264
498;0.264
498.25;0.268
498.5;0.26
498.75;0.262
499;0.264
499.25;0.268
499.5;0.26
499.75;0.264
500;0.264
500.25;0.268
500.5;0.26
500.75;0.264
501;0.264
501.25;0.268
501.5;0.26
501.75;0.264
502;0.264
502.25;0.268
502.5;0.26
502.75;0.264
503;0.264
503.25;0.27
503.5;0.26
503.75;0.264
504;0.264
504.25;0.27
504.5;0.26
504.75;0.264
505;0.266
505.25;0.268
505.5;0.26
505.75;0.264
506;0.264
506.25;0.268
506.5;0.26
506.75;0.266
507;0.264
507.25;0.27
507.5;0.258
507.75;0.264
508;0.264
508.25;0.27
508.5;0.26
508.75;0.266
509;0.266
509.25;0.268
509.5;0.26
509.75;0.264
510;0.264
510.25;0.27
510.5;0.26
510.75;0.264
511;0.264
511.25;0.268
511.5;0.26
511.75;0.264
512;0.264
512.25;0.27
512.5;0.258
512.75;0.264
513;0.264
513.25;0.27
513.5;0.26
513.75;0.264
514;0.264
514.25;0.27
514.5;0.26
514.75;0.266
515;0.264
515.25;0.268
515.5;0.258
515.75;0.264
516;0.266
516.25;0.27
516.5;0.26
516.75;0.266
517;0.266
517.25;0.27
517.5;0.26
517.75;0.266
518;0.264
518.25;0.27
518.5;0.26
518.75;0.264
519;0.264
519.25;0.27
519.5;0.26
519.75;0.266
520;0.264
520.25;0.27
520.5;0.26
520.75;0.266
521;0.266
521.25;0.27
521.5;0.26
521.75;0.266
522;0.266
522.25;0.27
522.5;0.26
522.75;0.266
523;0.264
523.25;0.27
523.5;0.26
523.75;0.266
524;0.266
524.25;0.27
524.5;0.26
524.75;0.264
525;0.266
525.25;0.27
525.5;0.26
525.75;0.266
526;0.266
526.25;0.27
526.5;0.26
526.75;0.266
527;0.266
527.25;0.272
527.5;0.26
527.75;0.266
528;0.266
528.25;0.27
528.5;0.262
528.75;0.266
529;0.266
529.25;0.272
529.5;0.26
529.75;0.268
530;0.266
530.25;0.272
530.5;0.26
530.75;0.266
531;0.268
531.25;0.272
531.5;0.26
531.75;0.27
532;0.268
532.25;0.272
532.5;0.262
532.75;0.268
533;0.268
533.25;0.272
533.5;0.262
533.75;0.268
534;0.266
534.25;0.272
534.5;0.262
534.75;0.268
535;0.268
535.25;0.272
535.5;0.262
535.75;0.27
536;0.268
536.25;0.272
536.5;0.264
536.75;0.268
537;0.27
537.25;0.272
537.5;0.262
537.75;0.27
538;0.27
538.25;0.272
538.5;0.262
538.75;0.27
539;0.27
539.25;0.272
539.5;0.264
539.75;0.268
540;0.27
540.25;0.274
540.5;0.264
540.75;0.268
541;0.268
541.25;0.274
541.5;0.266
541.75;0.27
542;0.27
542.25;0.274
542.5;0.264
542.75;0.272
543;0.27
543.25;0.274
543.5;0.266
543.75;0.272
544;0.27
544.25;0.276
544.5;0.266
544.75;0.27
545;0.27
545.25;0.276
545.5;0.266
545.75;0.272
546;0.272
546.25;0.276
546.5;0.266
546.75;0.27
547;0.268
547.25;0.276
547.5;0.266
547.75;0.272
548;0.272
548.25;0.276
548.5;0.268
548.75;0.272
549;0.272
549.25;0.276
549.5;0.268
549.75;0.272
550;0.274
550.25;0.278
550.5;0.268
550.75;0.272
551;0.272
551.25;0.278
551.5;0.268
551.75;0.274
552;0.274
552.25;0.278
552.5;0.27
552.75;0.274
553;0.274
553.25;0.278
553.5;0.268
553.75;0.274
554;0.274
554.25;0.278
554.5;0.27
554.75;0.276
555;0.276
555.25;0.28
555.5;0.27
555.75;0.276
556;0.276
556.25;0.28
556.5;0.27
556.75;0.274
557;0.276
557.25;0.28
557.5;0.272
557.75;0.276
558;0.276
558.25;0.282
558.5;0.272
558.75;0.276
559;0.276
559.25;0.28
559.5;0.272
559.75;0.278
560;0.278
560.25;0.282
560.5;0.272
560.75;0.278
561;0.278
561.25;0.282
561.5;0.272
561.75;0.28
562;0.278
562.25;0.282
562.5;0.274
562.75;0.28
563;0.28
563.25;0.284
563.5;0.274
563.75;0.278
564;0.278
564.25;0.282
564.5;0.274
564.75;0.282
565;0.282
565.25;0.286
565.5;0.274
565.75;0.28
566;0.28
566.25;0.284
566.5;0.276
566.75;0.278
567;0.28
567.25;0.286
567.5;0.276
567.75;0.282
568;0.282
568.25;0.286
568.5;0.276
568.75;0.282
569;0.282
569.25;0.286
569.5;0.274
569.75;0.282
570;0.282
570.25;0.286
570.5;0.278
570.75;0.282
571;0.284
571.25;0.288
571.5;0.278
571.75;0.284
572;0.284
572.25;0.288
572.5;0.28
572.75;0.284
573;0.284
573.25;0.29
573.5;0.278
573.75;0.284
574;0.284
574.25;0.29
574.5;0.28
574.75;0.284
575;0.286
575.25;0.29
575.5;0.28
575.75;0.286
576;0.286
576.25;0.29
576.5;0.28
576.75;0.286
577;0.288
577.25;0.292
577.5;0.282
577.75;0.288
578;0.286
578.25;0.292
578.5;0.282
578.75;0.286
579;0.286
579.25;0.292
579.5;0.282
579.75;0.286
580;0.288
580.25;0.292
580.5;0.284
580.75;0.288
581;0.288
581.25;0.292
581.5;0.282
581.75;0.288
582;0.288
582.25;0.292
582.5;0.282
582.75;0.288
583;0.286
583.25;0.292
583.5;0.282
583.75;0.288
584;0.286
584.25;0.292
584.5;0.282
584.75;0.288
585;0.286
585.25;0.292
585.5;0.282
585.75;0.288
586;0.288
586.25;0.292
586.5;0.282
586.75;0.288
587;0.286
587.25;0.292
587.5;0.282
587.75;0.288
588;0.286
588.25;0.292
588.5;0.282
588.75;0.286
589;0.288
589.25;0.292
589.5;0.28
589.75;0.288
590;0.286
590.25;0.292
590.5;0.282
590.75;0.288
591;0.286
591.25;0.292
591.5;0.282
591.75;0.286
592;0.288
592.25;0.292
592.5;0.282
592.75;0.288
593;0.288
593.25;0.292
593.5;0.282
593.75;0.288
594;0.288
594.25;0.446
594.5;-0.064
594.75;-0.064
595;0.192
595.25;0.446
595.5;-0.064
595.75;0.182
596;0.19
596.25;0.446
596.5;-0.064
596.75;0.19
597;0.126
597.25;0.446
597.5;-0.064
597.75;0.19
598;0.19
598.25;0.446
598.5;-0.064
598.75;0.32
599;0.064
599.25;0.446
599.5;-0.064
599.75;0.192
600;0.192
600.25;0.446
600.5;-0.064
600.75;0.19
601;0.182
601.25;0.446
601.5;-0.064
601.75;0.126
602;0.19
602.25;0.446
602.5;-0.064
602.75;0.194
603;0.192
603.25;0.446
603.5;-0.064
603.75;0.192
604;0.192
604.25;0.446
604.5;-0.064
604.75;0.192
605;-0.064
605.25;0.446
605.5;-0.064
605.75;0.19
606;0.158
606.25;0.446
606.5;-0.064
606.75;0.188
607;0.19
607.25;0.446
607.5;-0.064
607.75;0.192
608;0.192
608.25;0.446
608.5;-0.064
608.75;0.192
609;0.192
609.25;0.446
609.5;-0.064
609.75;0.19
610;0.174
610.25;0.446
610.5;-0.064
610.75;0.19
611;0.174
611.25;0.446
611.5;-0.064
611.75;0.192
612;0.192
612.25;0.446
612.5;-0.064
612.75;0.192
613;0.192
613.25;0.446
613.5;-0.064
613.75;0.192
614;0.192
614.25;0.446
614.5;-0.064
614.75;0.19
615;0.158
615.25;0.446
615.5;-0.064
615.75;0.19
616;0.19
616.25;0.446
616.5;-0.064
616.75;0.192
617;0.192
617.25;0.446
617.5;-0.064
617.75;0.192
618;0.192
618.25;0.446
618.5;-0.064
618.75;0.126
619;0.19
619.25;0.446
619.5;-0.064
619.75;0.19
620;0.19
620.25;0.446
620.5;-0.064
620.75;0.194
621;0.32
621.25;0.446
621.5;-0.064
621.75;0.192
622;-0.064
622.25;0.446
622.5;-0.064
622.75;0.194
623;-0.064
623.25;0.446
623.5;-0.064
623.75;0.19
624;0.19
624.25;0.446
624.5;-0.064
624.75;0.19
625;0.158
625.25;0.446
625.5;-0.064
625.75;0.192
626;0.064
626.25;0.446
626.5;-0.064
626.75;0.192
627;0.192
627.25;0.446
627.5;-0.064
627.75;0.174
628;0.19
628.25;0.446
628.5;-0.064
628.75;0.19
629;0.19
629.25;0.446
629.5;-0.064
629.75;0.192
630;0.192
630.25;0.446
630.5;-0.064
630.75;0.196
631;-0.064
631.25;0.446
631.5;-0.064
631.75;0.192
632;0.192
632.25;0.446
632.5;-0.064
632.75;0.19
633;0.19
633.25;0.446
633.5;-0.064
633.75;0.182
634;0.158
634.25;0.446
634.5;-0.064
634.75;0.192
635;-0.064
635.25;0.446
635.5;-0.064
635.75;0.194
636;0.192
636.25;0.446
636.5;-0.064
636.75;0.19
637;0.182
637.25;0.446
637.5;-0.064
637.75;0.174
638;0.15
638.25;0.446
638.5;-0.064
638.75;0.19
639;0.19
639.25;0.446
639.5;-0.064
639.75;0.192
640;0.192
640.25;0.446
640.5;-0.064
640.75;0.192
641;0.32
641.25;0.446
641.5;-0.064
641.75;0.19
642;0.19
642.25;0.446
642.5;-0.064
642.75;0.19
643;0.174
643.25;0.446
643.5;-0.064
643.75;0.192
644;0.192
644.25;0.446
644.5;-0.064
644.75;0.196
645;0.192
645.25;0.446
645.5;-0.064
645.75;0.19
646;0.19
646.25;0.446
646.5;-0.064
646.75;0.19
647;0.19
647.25;0.446
647.5;-0.064
647.75;0.19
648;0.19
648.25;0.446
648.5;-0.064
648.75;0.192
649;0.192
649.25;0.446
649.5;-0.064
649.75;0.192
650;0.192
650.25;0.446
650.5;-0.064
650.75;0.19
651;0.174
651.25;0.446
651.5;-0.064
651.75;0.19
652;0.182
652.25;0.446
652.5;-0.064
652.75;0.192
653;0.192
653.25;0.446
653.5;-0.064
653.75;0.192
654;0.192
654.25;0.446
654.5;-0.064
654.75;0.19
655;0.126
655.25;0.446
655.5;-0.064
655.75;0.182
656;0.126
656.25;0.446
656.5;-0.064
656.75;0.19
657;0.19
657.25;0.446
657.5;-0.064
657.75;0.192
658;0.192
658.25;0.446
658.5;-0.064
658.75;0.192
659;0.192
659.25;0.446
659.5;-0.064
659.75;0.19
660;0.19
660.25;0.446
660.5;-0.064
660.75;0.19
661;0.19
661.25;0.446
661.5;-0.064
661.75;0.192
662;0.192
662.25;0.446
662.5;-0.064
662.75;0.196
663;0.192
663.25;0.446
663.5;-0.064
663.75;0.19
664;0.19
664.25;0.446
664.5;-0.064
664.75;0.19
665;0.19
665.25;0.446
665.5;-0.064
665.75;0.19
666;0.158
666.25;0.446
666.5;-0.064
666.75;-0.064
667;0.192
667.25;0.446
667.5;-0.064
667.75;0.192
668;0.194
668.25;0.446
668.5;-0.064
668.75;0.19
669;0.174
669.25;0.446
669.5;-0.064
669.75;0.142
670;0.19
670.25;0.446
670.5;-0.064
670.75;0.194
671;0.192
671.25;0.446
671.5;-0.064
671.75;0.198
672;0.196
672.25;0.446
672.5;-0.064
672.75;0.192
673;0.192
673.25;0.446
673.5;-0.064
673.75;0.19
674;0.094
674.25;0.446
674.5;-0.064
674.75;0.166
675;0.19
675.25;0.446
675.5;-0.064
675.75;0.192
676;0.192
676.25;0.446
676.5;-0.064
676.75;0.192
677;0.192
677.25;0.446
677.5;-0.064
677.75;0.19
678;0.19
678.25;0.446
678.5;-0.064
678.75;0.19
679;0.126
679.25;0.446
679.5;-0.064
679.75;0.192
680;0.192
680.25;0.446
680.5;-0.064
680.75;0.192
681;0.192
681.25;0.446
681.5;-0.064
681.75;0.192
682;0.192
682.25;0.446
682.5;-0.064
682.75;0.19
683;0.19
683.25;0.446
683.5;-0.064
683.75;0.19
684;0.094
684.25;0.446
684.5;-0.064
684.75;0.192
685;0.192
685.25;0.446
685.5;-0.064
685.75;0.192
686;0.192
686.25;0.446
686.5;-0.064
686.75;0.19
687;0.19
687.25;0.446
687.5;-0.064
687.75;0.174
688;0.19
688.25;0.446
688.5;-0.064
688.75;0.192
689;0.194
689.25;0.446
689.5;-0.064
689.75;0.192
690;0.192
690.25;0.446
690.5;-0.064
690.75;0.192
691;0.192
691.25;0.446
691.5;-0.064
691.75;0.19
692;0.19
692.25;0.446
692.5;-0.064
692.75;0.19
693;0.19
693.25;0.446
693.5;-0.064
693.75;0.196
694;0.192
694.25;0.446
694.5;-0.064
694.75;0.32
695;0.192
695.25;0.446
695.5;-0.064
695.75;0.19
696;0.19
696.25;0.446
696.5;-0.064
696.75;0.19
697;0.19
697.25;0.446
697.5;-0.064
697.75;0.322
698;0.192
698.25;0.446
698.5;-0.064
698.75;0.192
699;0.192
699.25;0.446
699.5;-0.064
699.75;0.192
700;-0.064
700.25;0.446
700.5;-0.064
700.75;0.19
701;0.174
701.25;0.446
701.5;-0.064
701.75;0.19
702;0.19
702.25;0.446
702.5;-0.064
702.75;0.192
703;-0.064
703.25;0.446
703.5;-0.064
703.75;0.192
704;0.192
704.25;0.446
704.5;-0.064
704.75;0.126
705;0.19
705.25;0.446
705.5;-0.064
705.75;0.19
706;0.19
706.25;0.446
706.5;-0.064
706.75;0.19
707;0.126
707.25;0.446
707.5;-0.064
707.75;0.192
708;0.192
708.25;0.446
708.5;-0.064
708.75;0.192
709;0.32
709.25;0.446
709.5;-0.064
709.75;0.174
710;0.126
710.25;0.446
710.5;-0.064
710.75;0.19
711;0.126
711.25;0.446
711.5;-0.064
711.75;0.192
712;0.198
712.25;0.446
712.5;-0.064
712.75;0.192
713;0.192
713.25;0.446
713.5;-0.064
713.75;0.19
714;0.174
714.25;0.446
714.5;-0.064
714.75;0.126
715;0.19
715.25;0.446
715.5;-0.064
715.75;0.19
716;0.19
716.25;0.446
716.5;-0.064
716.75;0.196
717;0.192
717.25;0.446
717.5;-0.064
717.75;0.192
718;0.192
718.25;0.446
718.5;-0.064
718.75;0.19
719;0.126
719.25;0.446
719.5;-0.064
719.75;0.19
720;0.19
720.25;0.446
720.5;-0.064
720.75;-0.062
721;0.192
721.25;0.446
721.5;-0.064
721.75;0.192
722;0.192
722.25;0.446
722.5;-0.064
722.75;0.19
723;0.19
723.25;0.446
723.5;-0.064
723.75;0.182
724;0.174
724.25;0.446
724.5;-0.064
724.75;0.158
725;0.174
725.25;0.446
725.5;-0.064
725.75;0.192
726;0.194
726.25;0.446
726.5;-0.064
726.75;0.192
727;0.192
727.25;0.446
727.5;-0.064
727.75;0.126
728;0.158
728.25;0.446
728.5;-0.064
728.75;0.19
729;0.19
729.25;0.446
729.5;-0.064
729.75;0.192
730;0.192
730.25;0.446
730.5;-0.064
730.75;0.194
731;0.192
731.25;0.446
731.5;-0.064
731.75;0.19
732;0.182
732.25;0.446
732.5;-0.064
732.75;0.19
733;0.166
733.25;0.446
733.5;-0.064
733.75;0.19
734;0.19
734.25;0.446
734.5;-0.064
734.75;0.192
735;0.192
735.25;0.446
735.5;-0.064
735.75;0.192
736;0.192
736.25;0.446
736.5;-0.064
736.75;0.15
737;0.19
737.25;0.446
737.5;-0.064
737.75;0.19
738;0.19
738.25;0.446
738.5;-0.064
738.75;0.192
739;0.192
739.25;0.446
739.5;-0.064
739.75;0.192
740;0.32
740.25;0.446
740.5;-0.064
740.75;0.182
741;0.19
741.25;0.446
741.5;-0.064
741.75;0.19
742;0.126
742.25;0.446
742.5;-0.064
742.75;0.19
743;0.19
743.25;0.446
743.5;-0.064
743.75;0.192
744;-0.064
744.25;0.446
744.5;-0.064
744.75;0.192
745;0.192
745.25;0.446
745.5;-0.064
745.75;0.19
746;0.19
746.25;0.446
746.5;-0.064
746.75;0.094
747;0.158
747.25;0.446
747.5;-0.064
747.75;0.192
748;0.192
748.25;0.446
748.5;-0.064
748.75;0.194
749;0.192
749.25;0.446
749.5;-0.064
749.75;0.192
750;-0.064
750.25;0.446
750.5;-0.064
750.75;0.19
751;0.19
751.25;0.446
751.5;-0.064
751.75;0.19
752;0.19
752.25;0.446
752.5;-0.064
752.75;0.192
753;0.192
753.25;0.446
753.5;-0.064
753.75;0.192
754;-0.064
754.25;0.446
754.5;-0.064
754.75;0.158
755;0.19
755.25;0.446
755.5;-0.064
755.75;0.19
756;0.19
756.25;0.446
756.5;-0.064
756.75;0.192
757;0.32
757.25;0.446
757.5;-0.064
757.75;0.192
758;0.196
758.25;0.446
758.5;-0.064
758.75;0.196
759;0.192
759.25;0.446
759.5;-0.064
759.75;0.158
